>compound 
>formula C10H14N2O5
>parentmass 243.097763061523
>ionization [M + H]+
>instrumentation Unknown (LCMS)
>source file:/Users/fanzhoukong/Documents/GitHub/Libgen/data/NIST_MONA/0_unknown_/spectrum.ms
>quality UNKNOWN

>ms2peaks
30.0326 2.72
39.0214 7.07
41.0377 36.26
43.017 7.17
43.0543 47.36
43.0821 1.79
45.0329 88.18
45.0611 3.21
53.0392 12.53
54.0335 69.98
54.0655 1.92
56.0494 65.25
56.0806 1.96
57.0335 5.77
62.0593 2.77
66.0342 1.76
69.033 15.09
71.0151 1.69
71.05 3.37
73.0275 13.92
81.0331 2.77
81.0455 19.02
82.0286 28.32
84.0449 45.97
84.0785 2.35
84.7907 1.97
98.9988 1.69
109.0395 21.5
110.0239 100.0
110.0676 2.87
111.0286 4.19
127.0499 84.04
128.8014 2.04
131.9272 3.91

