>compound 
>formula C21H26O13
>parentmass 509.1265618923901
>ionization [M + Na]+
>instrumentation Unknown (LCMS)
>source file:/Users/fanzhoukong/Documents/GitHub/Libgen/data/EAD_PFP/0_unknown_/spectrum.ms
>quality UNKNOWN

>ms2peaks
50.015222 149.0
51.02273 500.0
52.028258 74.0
53.037187 170.0
54.035635 35.0
55.054303 270.0
55.933651 21.0
57.072789 34.0
59.999324 14.0
60.982943 40.0
62.014661 66.0
63.022369 240.0
64.027997 33.0
65.039225 947.0
66.044044 77.0
67.053362 179.0
68.02346 50.0
68.994828 95.0
74.014789 43.0
75.020248 40.0
76.028226 126.0
77.039484 993.0
78.047032 194.0
79.055041 294.0
80.050229 116.0
81.070157 94.0
82.064595 37.0
83.050814 25.0
84.020472 18.0
86.014828 58.0
86.989717 19.0
88.028905 18.0
89.037283 114.0
90.043041 49.0
91.054439 1290.0
92.051758 164.0
93.060176 121.0
94.065534 89.0
95.010402 15.0
95.047642 60.0
95.081072 30.0
96.019501 45.0
97.021379 37.0
98.024577 16.0
100.113093 15.0
101.043462 26.0
102.04542 85.0
103.054308 131.0
104.054176 33.0
105.067905 133.0
106.067373 55.0
107.073601 34.0
108.075409 29.0
109.077798 22.0
111.002514 37.0
112.014202 127.0
113.006531 44.0
114.030429 58.0
114.044029 20.0
115.052647 397.0
116.057255 75.0
117.067293 133.0
118.065742 82.0
119.0727 59.0
120.081798 34.0
125.023479 33.0
126.042028 49.0
126.048628 30.0
127.055876 133.0
128.058274 204.0
129.051252 29.0
129.070152 72.0
130.056981 17.0
130.06593 80.0
130.990379 23.0
131.072239 30.0
132.020527 31.0
132.071177 27.0
133.072785 30.0
133.101035 31.0
134.094043 31.0
138.029336 19.0
138.127176 19.0
139.038235 19.0
139.053235 81.0
140.051943 31.0
141.055381 52.0
141.068161 147.0
141.92817 19.0
142.067069 55.0
143.075348 51.0
144.082486 55.0
145.070734 15.0
145.086074 39.0
145.970032 36.0
146.082482 16.0
147.07519 26.0
147.960409 28.0
150.043445 20.0
151.053103 67.0
152.061312 86.0
153.06561 45.0
153.0741 44.0
154.069558 50.0
155.058486 30.0
155.074356 33.0
156.079955 33.0
157.051983 52.0
158.060281 93.0
163.053812 43.0
164.05732 18.0
165.068949 120.0
166.069797 56.0
167.083795 49.0
168.042463 51.0
168.066573 27.0
168.079283 58.0
169.045882 98.0
169.062452 38.0
170.06638 19.0
170.09448 44.0
172.103676 13.0
173.134624 15.0
174.128583 18.0
175.155191 17.0
176.063889 26.0
177.064897 16.0
178.067426 32.0
178.079196 99.0
179.072784 17.0
179.083284 44.0
180.079662 80.0
181.08277 43.0
182.096599 40.0
182.193108 39.0
183.060237 20.0
184.110145 18.0
185.045763 63.0
186.050572 172.0
187.04736 20.0
188.062958 25.0
189.073226 61.0
190.060515 22.0
191.001643 33.0
191.072063 20.0
192.087621 20.0
192.982049 66.0
193.099099 28.0
194.069537 19.0
195.097136 30.0
195.109456 20.0
196.123354 27.0
199.048079 18.0
199.085399 17.0
200.061057 21.0
201.037715 52.0
202.061303 17.0
202.079413 60.0
203.053992 1267.0
204.08128 31.0
205.085918 43.0
207.033535 140.0
208.036933 19.0
209.081001 20.0
214.025112 13.0
214.125452 18.0
215.09127 23.0
216.139898 20.0
217.049627 28.0
218.092905 24.0
219.034263 22.0
220.115691 27.0
221.0454 29.0
223.102326 17.0
225.115843 19.0
226.042761 17.0
226.084011 38.0
227.030649 77.0
227.057209 15.0
228.039887 82.0
229.051376 130.0
230.062154 43.0
232.10826 16.0
234.085487 14.0
236.147863 17.0
239.037968 46.0
240.040146 63.0
241.048994 414.0
242.093483 15.0
243.031781 347.0
244.111169 18.0
245.048767 27.0
246.114166 26.0
247.118744 14.0
248.98716 29.0
251.033307 59.0
253.050433 70.0
255.01773 13.0
257.044506 96.0
262.004547 14.0
265.019592 44.0
267.000789 23.0
267.055229 34.0
269.005425 39.0
269.043995 132.0
271.054671 23.0
273.040448 58.0
276.085583 14.0
279.036347 19.0
281.054384 146.0
282.053802 28.0
283.05331 27.0
283.06814 17.0
284.044709 15.0
285.074217 59.0
286.082395 20.0
296.005807 19.0
296.053017 46.0
297.039886 5792.0
298.043614 38.0
300.06463 13.0
301.066648 29.0
301.081968 33.0
303.004085 20.0
312.995917 29.0
313.035777 113.0
315.047794 13.0
328.010691 29.0
328.053261 42.0
329.063639 3925.0
329.074289 6278.0
330.073767 24.0
330.394207 20.0
331.080085 29.0
334.534579 28.0
341.678397 22.0
345.060221 95.0
345.071151 67.0
347.002757 15.0
347.072117 31.0
357.04345 18.0
359.089926 18.0
369.046778 20.0
375.068778 13.0
387.104767 14.0
401.082892 30.0
413.099841 12.0
417.073554 21.0
419.09464 76.0
431.044929 31.0
431.101879 16.0
445.017014 27.0
445.943313 6.0
449.008157 16.0
449.097427 26.0
459.048239 26.0
461.107446 11.0
463.122762 21.0
477.047048 25.0
477.109118 39.0
491.103753 24.0
491.121123 64.0
493.094319 30.0
499.039869 6.0
507.103575 25.0
507.385984 17.0
508.121063 21.0
509.128501 4243.0

