>compound 
>formula C10H14O4
>parentmass 221.0784299295
>ionization [M + Na]+
>instrumentation Unknown (LCMS)
>source file:/Users/fanzhoukong/Documents/GitHub/Libgen/data/EAD_PFP/0_unknown_/spectrum.ms
>quality UNKNOWN

>ms2peaks
50.015446 121.0
51.023643 630.0
52.02989 68.0
53.040257 58.0
54.035854 6.0
55.054511 189.0
55.933129 15.0
56.051148 15.0
56.966476 28.0
57.070776 49.0
57.933953 9.0
59.05027 72.0
60.983144 35.0
62.014861 17.0
63.021788 348.0
64.032126 134.0
65.039433 1191.0
66.04584 26.0
67.056767 145.0
68.058404 15.0
68.996651 114.0
69.072341 15.0
71.052525 12.0
72.93681 14.0
73.04645 12.0
74.015827 34.0
75.022134 64.0
76.031831 178.0
77.040528 967.0
78.046355 165.0
79.053482 331.0
80.05392 41.0
81.072987 126.0
82.065674 6.0
83.050111 20.0
83.084931 17.0
86.015012 10.0
87.02461 6.0
87.044719 36.0
88.030917 13.0
89.039304 319.0
90.046931 66.0
91.055548 1083.0
92.044415 32.0
92.057575 29.0
93.065072 39.0
93.071692 84.0
94.065709 13.0
95.085066 160.0
95.952484 14.0
97.064001 11.0
98.096528 9.0
99.992732 9.0
101.038709 30.0
102.047566 212.0
103.054473 180.0
104.027351 17.0
104.062331 16.0
105.038938 40.0
105.071068 168.0
106.048355 6.0
106.066515 5.0
107.050442 104.0
107.066662 32.0
108.080659 11.0
109.101486 93.0
110.998531 29.0
111.08111 5.0
112.999385 40.0
113.008755 10.0
114.034762 17.0
114.046272 10.0
115.054889 360.0
116.058456 62.0
117.032463 9.0
117.065313 119.0
118.04353 106.0
119.052538 139.0
119.084597 55.0
120.022905 64.0
120.057245 10.0
121.057552 7.0
121.065102 58.0
121.081272 16.0
121.101752 38.0
122.070679 7.0
122.096649 8.0
123.081496 14.0
123.113016 13.0
123.117366 12.0
124.99951 8.0
125.09591 13.0
126.049857 20.0
126.905875 7.0
127.057115 50.0
128.062832 191.0
129.033569 12.0
129.053589 17.0
129.069169 38.0
130.044806 81.0
130.991633 8.0
131.054423 89.0
131.067873 11.0
132.02291 23.0
132.04315 11.0
132.05779 73.0
133.070637 62.0
133.079677 6.0
133.102277 21.0
134.038584 24.0
135.047602 130.0
137.041436 11.0
137.058646 13.0
139.00484 9.0
139.05797 10.0
140.049727 12.0
141.067134 42.0
141.929432 14.0
142.073021 20.0
142.991109 5.0
143.084829 9.0
144.077876 20.0
145.061393 8.0
146.0388 22.0
147.046777 472.0
148.051084 71.0
149.060001 129.0
150.050749 10.0
150.067548 58.0
151.055616 36.0
151.077276 6.0
151.115805 7.0
152.048113 7.0
152.062613 86.0
153.06569 22.0
154.067217 33.0
155.059794 9.0
155.075654 26.0
155.085414 14.0
156.078821 26.0
157.042248 10.0
157.090128 6.0
157.104868 14.0
158.036966 26.0
158.076375 8.0
158.093615 10.0
159.012593 9.0
159.045933 24.0
159.115132 8.0
160.05069 122.0
161.061097 216.0
161.088437 7.0
162.068424 867.0
163.038881 870.0
164.059908 25.0
165.069035 61.0
166.068603 33.0
166.077432 8.0
167.06994 33.0
168.064127 7.0
168.078087 49.0
169.081634 12.0
170.095821 8.0
171.082308 14.0
172.056205 8.0
173.025143 11.0
174.0317 82.0
175.041167 605.0
176.045764 144.0
177.058441 174.0
178.064878 730.0
179.083335 15.0
180.081022 18.0
180.99055 10.0
181.085459 23.0
182.076807 8.0
183.090764 6.0
184.118171 11.0
185.133778 21.0
188.049569 65.0
188.077779 16.0
189.058436 104.0
190.063254 1443.0
191.035521 671.0
192.004848 6.0
192.055078 9.0
193.086875 1114.0
193.987692 5.0
194.072302 6.0
194.085942 7.0
196.087706 7.0
196.112416 15.0
197.108263 6.0
200.140065 6.0
201.058562 6.0
201.076622 5.0
202.071079 7.0
203.111236 21.0
203.150346 13.0
203.175476 32.0
204.085503 14.0
205.048071 15.0
206.056488 449.0
208.036942 17.0
209.030029 15.0
209.106499 8.0
214.062385 6.0
216.079409 8.0
218.089993 6.0
221.078895 462.0

