>compound 
>formula C60H102O28
>parentmass 1293.64498363542
>ionization [M + Na]+
>instrumentation Unknown (LCMS)
>source file:/Users/fanzhoukong/Documents/GitHub/Libgen/data/EAD_PFP/0_unknown_/spectrum.ms
>quality UNKNOWN

>ms2peaks
50.014112 78.0
51.022312 302.0
53.036774 114.0
54.040264 23.0
55.054625 173.0
56.057135 19.0
57.069426 59.0
59.929148 7.0
60.996318 55.0
62.018129 7.0
63.022759 115.0
65.039641 558.0
66.041281 76.0
67.053782 143.0
68.996083 148.0
71.048654 29.0
74.016116 12.0
75.020747 104.0
77.035688 431.0
77.042568 579.0
78.044958 156.0
79.053819 175.0
81.06453 62.0
82.069591 25.0
83.046911 13.0
86.019953 10.0
88.031334 7.0
89.038805 176.0
90.049225 29.0
91.052256 606.0
92.057086 145.0
93.060817 40.0
94.068078 50.0
95.087458 62.0
97.011429 24.0
100.005011 24.0
102.045132 108.0
103.055023 177.0
104.055884 73.0
105.065604 73.0
107.068255 18.0
108.074116 31.0
110.999148 28.0
113.003139 63.0
115.04923 51.0
115.05343 525.0
116.052771 66.0
117.061741 100.0
118.065482 73.0
119.083142 39.0
120.082623 27.0
122.080034 28.0
126.045086 10.0
127.055637 97.0
128.061358 246.0
129.066588 60.0
130.067929 58.0
130.990159 16.0
131.069759 70.0
132.07996 17.0
133.065781 17.0
134.094951 16.0
137.000983 7.0
139.055334 37.0
141.067965 98.0
142.075036 60.0
143.078646 37.0
145.071728 27.0
145.968648 48.0
147.117779 63.0
150.04926 22.0
151.052931 68.0
152.061142 171.0
153.070282 127.0
154.066933 46.0
155.060753 37.0
155.083923 19.0
156.074884 55.0
157.077595 67.0
158.066265 22.0
158.094585 35.0
159.088926 35.0
160.073986 8.0
161.094407 25.0
162.058217 15.0
163.058658 50.0
164.060929 42.0
165.068789 170.0
166.0709 42.0
167.07604 63.0
168.079141 57.0
169.080142 52.0
170.091772 19.0
171.115413 19.0
172.112543 37.0
173.133184 21.0
174.996915 36.0
176.054656 22.0
177.062156 22.0
178.073837 67.0
179.084457 42.0
180.082168 66.0
180.990389 28.0
181.077379 28.0
182.072679 27.0
182.097789 25.0
183.10252 20.0
184.11269 14.0
185.108291 15.0
187.051272 19.0
187.142392 21.0
188.144803 18.0
189.059633 35.0
189.163363 18.0
191.001524 35.0
192.080735 30.0
192.977846 66.0
193.002336 16.0
194.092646 34.0
195.105257 18.0
197.132898 11.0
200.00555 15.0
200.1455 11.0
202.073741 28.0
203.083222 11.0
203.144652 35.0
204.088202 52.0
205.101273 21.0
206.087343 23.0
207.030634 141.0
208.032624 39.0
208.997355 8.0
209.029935 34.0
210.025376 23.0
211.055926 14.0
212.990147 14.0
213.167447 10.0
215.129989 8.0
219.099451 58.0
220.095291 23.0
223.118373 11.0
224.108624 12.0
226.078055 23.0
229.089897 8.0
231.069148 12.0
234.09445 21.0
239.151553 13.0
241.195014 20.0
242.984435 10.0
242.990545 8.0
245.133106 12.0
248.984058 18.0
251.01003 8.0
252.17852 8.0
255.121012 8.0
262.106066 11.0
263.139537 8.0
265.021228 31.0
266.018878 23.0
266.999219 34.0
277.082695 12.0
281.049497 73.0
282.053858 24.0
303.0724 8.0
325.114643 24.0
326.092184 8.0
331.098046 11.0
343.310214 7.0
345.076755 14.0
347.097816 34.0
363.088605 11.0
363.101695 8.0
391.118562 8.0
407.118871 8.0
424.365681 14.0
447.225095 8.0
479.137993 8.0
509.135561 27.0
525.13454 18.0
525.14125 116.0
528.984822 8.0
627.22108 14.0
647.323332 7.0
689.384086 14.0
703.395325 8.0
747.43679 18.0
775.470617 23.0
787.478934 14.0
789.476005 16.0
790.480946 23.0
805.465574 14.0
816.213441 8.0
817.442571 8.0
821.399294 8.0
834.464061 25.0
835.477432 30.0
851.215051 7.0
861.509427 8.0
879.495528 8.0
912.515077 8.0
931.504588 8.0
951.47506 20.0
952.5209 33.0
952.53902 61.0
963.518277 9.0
967.487579 50.0
967.518039 76.0
967.533299 99.0
968.53299 24.0
979.521036 10.0
993.443584 9.0
997.511097 20.0
997.548207 97.0

