>compound 
>formula C11H18O5
>parentmass 231.12270467799
>ionization [M + H]+
>instrumentation Unknown (LCMS)
>source file:/Users/fanzhoukong/Documents/GitHub/Libgen/data/EAD_PFP/0_unknown_/spectrum.ms
>quality UNKNOWN

>ms2peaks
50.015835 186.0
51.025442 598.0
52.00485 20.0
52.02746 19.0
52.03241 113.0
52.864588 14.0
53.042087 9159.0
53.831935 12.0
54.047054 53.0
54.839972 28.0
54.845052 39.0
54.868992 47.0
54.882062 33.0
54.889312 72.0
55.017122 42.0
55.044012 16781.0
55.056372 275.0
55.410191 16.0
55.471461 39.0
55.517441 19.0
55.553941 43.0
55.57658 31.0
55.61383 20.0
55.63209 29.0
55.66498 27.0
55.72712 14.0
55.94086 19.0
56.026619 45.0
56.114639 18.0
56.334268 24.0
56.397518 24.0
56.479208 37.0
56.884847 61.0
56.889277 39.0
57.066747 2679.0
57.071187 5320.0
57.494535 22.0
57.556205 23.0
57.633525 29.0
57.696015 27.0
57.723545 21.0
57.768205 28.0
57.835235 32.0
57.932874 30.0
58.009694 34.0
58.041784 16.0
58.070144 23.0
58.206834 14.0
58.297303 14.0
59.037121 295.0
59.050671 1480.0
60.878037 25.0
61.030236 513.0
62.016824 17.0
62.741002 15.0
65.041426 2482.0
66.042273 29.0
66.046253 70.0
66.519202 16.0
66.840771 34.0
67.05719 8311.0
67.773039 21.0
68.028928 1163.0
68.773486 32.0
68.814106 19.0
68.849056 33.0
68.997075 1075.0
69.003585 901.0
69.037765 6896.0
69.498414 35.0
69.581734 13.0
69.630774 17.0
69.710903 14.0
69.800083 24.0
70.040913 30.0
70.151632 25.0
70.409502 13.0
70.532851 33.0
70.680201 19.0
70.815331 26.0
70.821101 90.0
71.05625 9450.0
71.661988 22.0
71.700138 24.0
71.838738 25.0
71.918468 17.0
72.027337 31.0
72.112167 30.0
72.209527 24.0
72.326117 18.0
72.426956 22.0
73.065295 1893.0
75.046329 1094.0
77.042684 2508.0
78.012172 19.0
78.046792 20.0
78.051982 41.0
78.8111 13.0
79.057399 6026.0
80.029806 79.0
80.046466 54.0
80.448375 18.0
80.754435 28.0
80.772925 57.0
80.779964 38.0
81.039914 11713.0
81.547782 59.0
81.701772 42.0
81.810722 27.0
82.042151 1668.0
82.773129 24.0
83.052329 10430.0
83.461707 70.0
84.782474 45.0
85.051483 13242.0
85.810241 20.0
87.046988 1184.0
89.061933 43.0
90.567759 15.0
91.056928 5933.0
91.503366 28.0
92.058015 15.0
93.073082 7296.0
93.508321 17.0
93.79557 18.0
94.0443 864.0
95.013887 14.0
95.050167 289.0
95.056857 3442.0
95.066407 3528.0
95.513936 17.0
96.032595 21.0
96.046035 69.0
96.058514 230.0
96.478543 22.0
96.743333 27.0
97.054802 12822.0
97.066382 1497.0
97.531171 18.0
97.74025 20.0
98.038769 263.0
98.304719 19.0
98.761747 16.0
99.049147 5918.0
99.454156 23.0
100.411903 26.0
101.026351 189.0
101.036201 140.0
101.061801 77.0
103.049946 148.0
103.068846 76.0
104.068774 36.0
105.060481 80.0
105.074531 431.0
106.042758 30.0
107.087386 3734.0
108.042413 65.0
108.059723 117.0
109.05487 1629.0
109.06204 4795.0
110.040198 139.0
110.049448 144.0
110.057668 80.0
110.075138 59.0
110.664846 18.0
110.684426 26.0
110.728746 27.0
111.045435 1173.0
111.060925 13060.0
111.677064 28.0
112.042803 23.0
112.052133 176.0
112.291802 20.0
112.330212 31.0
112.656461 14.0
113.06337 10962.0
113.856408 32.0
114.080207 17.0
114.111597 22.0
114.159737 16.0
114.337747 11.0
114.827445 11.0
114.856835 23.0
115.057445 2600.0
116.064192 91.0
116.71415 28.0
117.074249 4259.0
118.073797 22.0
118.084437 15.0
119.087204 3178.0
120.024432 14.0
120.058782 81.0
120.109232 21.0
120.64341 38.0
120.67138 14.0
121.053709 6795.0
121.066639 2630.0
122.042996 21.0
122.059226 31.0
122.075466 175.0
122.820174 15.0
123.047184 462.0
123.056964 978.0
123.066744 774.0
123.078694 206.0
124.058751 127.0
124.67818 48.0
125.054749 3471.0
125.061319 3294.0
126.032726 70.0
126.045926 31.0
126.065716 38.0
127.044323 7935.0
128.064411 42.0
129.060728 365.0
129.080758 59.0
130.078805 9.0
130.427625 21.0
132.06952 10.0
134.073085 34.0
135.081092 1016.0
135.083352 1887.0
136.09173 373.0
137.056817 34.0
137.075167 192.0
137.087777 383.0
137.098107 155.0
138.064445 52.0
138.073655 120.0
139.041112 70.0
139.057282 561.0
139.067672 5007.0
140.033969 28.0
140.050199 88.0
140.625808 15.0
140.783837 20.0
141.060607 3564.0
142.073484 21.0
143.013812 25.0
143.034922 38.0
143.041942 61.0
143.051301 53.0
143.111071 24.0
144.058369 24.0
145.048886 32.0
145.065396 500.0
146.067674 36.0
147.048431 95.0
147.059121 85.0
148.055118 134.0
149.098746 1990.0
150.104023 82.0
150.565252 27.0
150.615742 22.0
151.11629 3646.0
152.055848 107.0
152.063098 199.0
152.081208 53.0
153.063745 123.0
153.075865 3903.0
153.090415 886.0
154.066473 48.0
154.094443 29.0
155.08954 106.0
155.10663 225.0
156.081747 27.0
157.056225 104.0
157.072185 348.0
158.086702 23.0
159.08348 65.0
160.049917 23.0
160.103217 27.0
161.060304 85.0
162.068892 464.0
163.080639 3482.0
164.066666 24.0
165.058174 34.0
165.073264 63.0
165.092154 107.0
166.065281 44.0
166.100641 23.0
166.54787 20.0
166.56811 29.0
166.65282 22.0
167.117268 5695.0
167.848777 18.0
168.119206 24.0
169.125423 1272.0
170.100121 24.0
171.103278 1215.0
171.127638 40.0
172.097795 25.0
172.824664 14.0
173.093923 84.0
175.075348 19.0
177.073252 20.0
177.090202 1232.0
180.082825 38.0
180.484013 26.0
181.095172 5703.0
182.099769 44.0
185.107611 24.0
187.954674 21.0
191.000816 24.0
195.103125 1842.0
195.120915 188.0
198.104367 21.0
199.092815 14.0
202.081307 16.0
203.150824 16.0
207.031214 15.0
211.134743 18.0
213.110798 203.0
231.127721 53.0

