>compound 
>formula C14H11Cl2NO2
>parentmass 296.023956298828
>ionization [M + H]+
>instrumentation Unknown (LCMS)
>source file:/Users/fanzhoukong/Documents/GitHub/Libgen/data/NIST_MONA/0_unknown_/spectrum.ms
>quality UNKNOWN

>ms2peaks
57.06977 1.815424
71.08555 3.238229
102.09143 4.569022
121.02898 1.86657
121.05172 7.264454
149.02361 18.493707
150.02724 1.558442
167.03484 2.45951
180.082 1.398235
214.04214 66.623377
217.04741 23.591987
218.05069 2.782179
250.01874 100.0
251.0228 13.453593
252.01585 64.776363
253.01927 8.405706
254.01398 9.726972
278.01379 34.921777
279.01694 4.928546
280.01178 20.548563
281.01498 3.493456
282.00839 3.364589
296.02493 13.745675
297.02701 2.327884
298.02213 9.400542
299.02411 1.579251
300.01987 1.437096

