>compound 
>formula C20H20O6
>parentmass 357.13326936202003
>ionization [M + H]+
>instrumentation Unknown (LCMS)
>source file:/Users/fanzhoukong/Documents/GitHub/Libgen/data/EAD_PFP/0_unknown_/spectrum.ms
>quality UNKNOWN

>ms2peaks
113.026163 4662.0
115.057739 2304.0
116.064486 225.0
117.069254 105.0
118.045351 669.0
119.053299 6389.0
120.056947 571.0
121.030304 2294.0
122.036822 63.0
123.043159 41.0
126.046252 27.0
127.05681 109.0
128.062527 104.0
129.073315 50.0
131.04514 101.0
131.05187 147.0
137.062926 98.0
139.058831 86.0
141.071476 365.0
142.041184 34.0
143.050551 1154.0
144.061119 1995.0
145.055196 6139.0
146.037294 115.0
146.109514 47.0
146.569323 48.0
147.046462 7885.0
148.059129 33.0
148.119919 52.0
149.023817 616.0
150.049255 587.0
151.056512 1746.0
151.567431 24.0
152.06473 5186.0
153.072667 3383.0
154.076625 276.0
155.087552 1179.0
156.08219 54.0
157.068948 1066.0
158.035425 48.0
158.074835 48.0
159.046883 1070.0
160.05534 426.0
161.063258 1675.0
162.041946 108.0
163.052343 1666.0
164.065881 1136.0
165.075018 10215.0
166.082186 2185.0
167.086094 3801.0
169.069869 1176.0
170.054646 98.0
170.076366 125.0
170.113406 41.0
171.047394 4082.0
172.053352 486.0
173.063509 281.0
174.053377 75.0
174.120577 52.0
175.075864 1367.0
176.062352 3175.0
177.06595 454.0
177.07117 5263.0
178.064567 366.0
178.077637 1457.0
178.617956 47.0
179.076475 594.0
180.067592 45.0
180.095202 92.0
181.07066 2457.0
182.076528 931.0
183.081195 3178.0
184.084643 61.0
184.120533 72.0
185.09749 313.0
187.041756 1670.0
188.051963 98.0
188.068083 171.0
189.070271 4008.0
190.079168 2574.0
191.090766 8331.0
192.061574 22.0
192.090084 55.0
193.066161 1928.0
194.073379 5181.0
195.073636 912.0
195.083196 5837.0
196.079194 69.0
197.063972 5330.0
198.070509 207.0
199.043667 4289.0
200.062194 1149.0
201.076352 5480.0
202.08053 1419.0
203.080237 2413.0
204.054435 42.0
205.070232 529.0
206.07589 242.0
207.084028 1640.0
208.096015 617.0
209.104813 7731.0
210.07202 1153.0
211.079908 3901.0
212.088756 10514.0
213.095743 7769.0
215.036398 168.0
215.056508 94.0
216.120896 33.0
217.065214 437.0
218.076701 2832.0
219.084729 10535.0
220.092176 1160.0
221.075704 311.0
221.091724 507.0
222.067262 374.0
222.334511 49.0
222.54051 28.0
223.080079 9972.0
224.086397 133.0
225.090554 116.0
227.0761 38.0
228.069207 41.0
229.077795 740.0
230.073742 68.0
230.127242 31.0
230.321962 39.0
231.07187 2988.0
232.088578 46.0
233.065625 110.0
233.106015 38.0
234.074703 179.0
234.166133 81.0
235.07695 2665.0
236.084348 2359.0
236.625017 33.0
236.833026 38.0
237.093906 15275.0
238.095033 126.0
238.297623 62.0
238.421642 65.0
238.650092 76.0
238.854441 124.0
239.069481 31.0
239.622659 44.0
240.082338 41.0
243.138401 69.0
245.069936 25.0
246.063144 114.0
246.264503 60.0
247.079942 9576.0
248.084929 1052.0
249.091977 1024.0
250.065424 1089.0
250.612543 33.0
251.071822 1366.0
253.154547 29.0
254.210844 57.0
255.105062 85.0
262.158045 103.0
263.083583 821.0
264.080801 632.0
265.095818 18674.0
266.100026 67.0
266.498095 53.0
266.770004 28.0
267.375173 42.0
269.120799 41.0
271.832282 53.0
275.073764 2220.0
276.075502 104.0
277.186699 28.0
278.056697 57.0
278.584556 60.0
279.065485 39.0
280.167922 78.0
282.487957 44.0
283.095835 59.0
289.18225 41.0
291.062736 42.0
292.059684 49.0
292.078084 60.0
293.088491 8981.0
295.318216 35.0
297.118901 173.0
304.870443 12.0
307.092937 66.0
311.088598 156.0
311.111058 43.0
325.112394 4467.0
357.181927 32.0

