>compound 
>formula C22H24O7
>parentmass 401.1594841105101
>ionization [M + H]+
>instrumentation Unknown (LCMS)
>source file:/Users/fanzhoukong/Documents/GitHub/Libgen/data/EAD_PFP/0_unknown_/spectrum.ms
>quality UNKNOWN

>ms2peaks
115.058089 3932.0
116.062716 306.0
117.070663 722.0
118.04464 143.0
120.022945 185.0
121.029582 139.0
121.061912 134.0
126.048807 474.0
127.057155 715.0
128.062862 1044.0
129.070329 228.0
131.049983 133.0
139.05687 221.0
141.064844 232.0
141.074154 463.0
143.048559 564.0
143.060279 352.0
144.055606 686.0
145.065003 3904.0
146.07198 447.0
147.083657 185.0
149.044511 260.0
150.036409 1357.0
151.077346 11168.0
152.066303 2437.0
153.07183 777.0
154.052677 200.0
155.045214 495.0
155.058634 358.0
156.060531 823.0
157.068088 5070.0
158.075195 5005.0
159.055883 3610.0
160.05569 387.0
160.07059 488.0
161.064877 607.0
162.057264 160.0
163.048951 961.0
163.056461 1648.0
164.064988 601.0
165.061535 10742.0
166.059823 322.0
166.069933 467.0
167.051 294.0
167.07 712.0
168.060367 1021.0
169.067694 1134.0
170.038411 395.0
170.051181 542.0
171.079798 962.0
172.079405 1447.0
173.062582 3884.0
174.06923 5000.0
175.069747 1071.0
176.065324 1251.0
177.071541 1721.0
179.070285 1737.0
179.075535 4191.0
180.056122 173.0
181.056529 754.0
182.068947 210.0
182.078217 475.0
183.064324 386.0
183.084204 390.0
184.054431 261.0
185.057878 1388.0
186.070725 1179.0
187.076962 2006.0
188.067099 3926.0
188.084569 1751.0
189.092186 11593.0
190.076834 304.0
190.082234 831.0
191.074861 1896.0
192.066008 266.0
193.051555 3566.0
194.073742 184.0
195.061669 746.0
196.054876 556.0
197.054704 530.0
198.069481 292.0
200.048685 816.0
201.097542 18107.0
202.073929 1618.0
203.087586 18990.0
204.064583 215.0
204.079983 250.0
205.060771 1072.0
205.066381 1764.0
206.076248 474.0
207.070265 828.0
208.059632 146.0
209.054179 191.0
209.083919 245.0
211.075993 591.0
212.06059 130.0
212.08769 178.0
213.090377 1866.0
215.074102 7440.0
216.079509 368.0
217.085786 1778.0
218.077053 1172.0
219.08653 1954.0
220.080897 285.0
221.078975 502.0
221.097904 633.0
223.049719 494.0
223.061419 339.0
223.108229 224.0
224.054486 403.0
225.087973 501.0
226.06345 214.0
227.076467 484.0
229.084072 626.0
230.078559 192.0
231.101996 6035.0
232.087443 922.0
233.08242 644.0
234.067547 577.0
235.075784 279.0
235.089324 333.0
237.064079 367.0
237.089729 337.0
238.062126 840.0
239.077413 888.0
240.08117 382.0
241.090117 680.0
243.076111 155.0
243.088341 156.0
244.091328 153.0
245.074886 671.0
245.085636 2140.0
247.08183 938.0
248.086827 1078.0
249.087684 446.0
249.096954 1179.0
250.067301 175.0
250.081271 384.0
251.064388 356.0
251.087678 319.0
252.063456 190.0
252.080556 219.0
253.048913 161.0
253.076953 548.0
254.0691 238.0
255.075667 177.0
255.094437 587.0
257.044531 145.0
258.069558 137.0
259.082465 417.0
260.081543 334.0
261.0936 1293.0
262.090207 366.0
263.107754 2324.0
264.089101 492.0
265.091388 1010.0
265.120108 358.0
266.068405 357.0
267.072852 3032.0
268.07597 402.0
269.085787 1655.0
271.106291 181.0
273.085775 172.0
273.101955 288.0
274.090382 191.0
274.106592 188.0
275.104969 1620.0
276.111647 1711.0
277.094074 1384.0
277.105484 912.0
278.099501 533.0
279.103458 846.0
280.084635 265.0
280.117405 489.0
281.097082 674.0
282.091639 4410.0
283.096186 1097.0
286.089038 137.0
287.075765 205.0
288.082472 509.0
289.090949 1212.0
290.091196 580.0
290.097846 634.0
291.106513 5259.0
292.110231 2107.0
293.095548 645.0
294.104335 254.0
295.135092 1343.0
297.078696 3673.0
298.087573 1906.0
299.089671 221.0
299.10154 277.0
301.088725 161.0
301.115945 165.0
302.100982 209.0
303.102999 1510.0
304.115196 1536.0
305.086293 422.0
305.111963 609.0
305.122243 537.0
306.09325 609.0
307.127587 4048.0
308.110395 1210.0
309.094742 598.0
309.111952 384.0
310.085829 427.0
310.101359 390.0
311.087166 112.0
312.105683 10858.0
313.11026 6038.0
317.088889 185.0
318.094466 529.0
319.098133 2127.0
320.10865 1513.0
321.111977 2719.0
322.129184 1254.0
323.133881 1632.0
324.108429 239.0
325.112696 3594.0
326.116753 147.0
333.108003 2052.0
334.12613 7967.0
335.122467 4572.0
336.120294 225.0
337.117821 600.0
338.120408 2731.0
339.129906 1287.0
343.079504 121.0
349.109917 522.0
350.122824 1857.0
351.128031 483.0
352.127358 623.0
353.142805 7719.0
355.15223 256.0
364.132544 89.0
365.146431 8930.0
383.155899 1589.0
401.210257 143.0
401.237727 391.0

