>compound 
>formula C21H20O10
>parentmass 433.1129278403
>ionization [M + H]+
>instrumentation Unknown (LCMS)
>source file:/Users/fanzhoukong/Documents/GitHub/Libgen/data/EAD_PFP/0_unknown_/spectrum.ms
>quality UNKNOWN

>ms2peaks
50.015827 101.0
51.022636 459.0
52.024644 45.0
52.031004 93.0
53.021413 145.0
53.039963 106.0
55.019351 330.0
55.054961 54.0
56.047209 19.0
56.061869 16.0
57.033518 153.0
60.019775 44.0
61.028043 71.0
62.016942 21.0
63.023111 139.0
64.02798 63.0
65.039208 1399.0
66.046417 153.0
67.028486 63.0
67.035706 76.0
67.054956 97.0
68.025065 58.0
68.998893 939.0
70.039472 27.0
71.011881 43.0
73.030368 68.0
75.016886 40.0
75.023676 90.0
76.032525 102.0
77.039524 1072.0
78.047082 293.0
79.018511 439.0
79.036801 132.0
81.030529 75.0
81.032299 266.0
83.009826 18.0
83.085706 21.0
85.031064 296.0
89.039229 633.0
90.048717 176.0
91.054546 1195.0
92.036835 40.0
92.057515 38.0
92.996994 33.0
93.014944 211.0
93.031944 136.0
94.042862 141.0
95.013391 94.0
95.050641 39.0
96.01963 40.0
97.029229 95.0
99.007736 37.0
101.032784 33.0
101.042634 26.0
102.048553 102.0
103.035581 74.0
103.045521 321.0
104.03336 36.0
104.05434 31.0
105.035939 158.0
105.055019 93.0
106.048378 73.0
106.066538 17.0
107.050466 413.0
108.023665 65.0
109.027864 139.0
111.005812 135.0
111.025421 22.0
113.036939 29.0
114.030648 23.0
115.053916 865.0
116.060645 104.0
117.039964 63.0
117.052684 56.0
117.064344 109.0
118.042563 527.0
119.052632 173.0
119.061182 89.0
120.02086 22.0
121.029649 985.0
123.006637 42.0
123.042497 21.0
125.025934 93.0
126.044503 46.0
126.059903 25.0
127.046212 69.0
127.052842 218.0
128.06187 633.0
129.063779 40.0
129.072669 82.0
130.041628 36.0
130.060628 41.0
130.068438 83.0
131.051227 258.0
132.017446 58.0
132.036575 49.0
132.080475 24.0
133.027884 83.0
134.036503 115.0
135.003402 42.0
135.043242 100.0
136.010331 43.0
137.023299 151.0
138.034268 32.0
139.053567 183.0
140.063866 56.0
141.068524 371.0
142.049903 23.0
143.052272 41.0
143.058122 68.0
143.085072 38.0
144.054621 37.0
144.084001 48.0
145.029799 234.0
145.045119 97.0
145.055739 41.0
145.970388 65.0
146.033128 36.0
147.020907 39.0
147.033987 61.0
147.048237 144.0
147.992946 29.0
148.016786 22.0
149.026794 355.0
150.031823 1193.0
151.043862 53.0
151.054702 292.0
152.061721 770.0
153.01875 107.0
153.04298 169.0
153.057519 231.0
153.070859 287.0
154.066308 23.0
154.079678 81.0
155.051577 215.0
155.066217 165.0
155.079627 81.0
155.085727 56.0
155.995936 24.0
156.064456 46.0
156.093836 19.0
157.065895 273.0
158.036063 168.0
158.102573 20.0
159.043812 220.0
159.073462 53.0
160.017581 21.0
160.049791 26.0
161.02539 136.0
161.05771 28.0
162.031388 250.0
162.999217 19.0
163.022987 93.0
163.041747 454.0
164.045226 30.0
165.019055 302.0
165.036675 463.0
165.042965 574.0
165.069395 260.0
166.027323 48.0
166.075293 43.0
167.056392 65.0
167.085512 61.0
168.059421 278.0
168.070871 114.0
169.06546 474.0
170.073248 79.0
170.082168 42.0
171.049397 141.0
171.068617 76.0
173.028155 158.0
173.042325 96.0
174.030834 76.0
175.037712 205.0
176.035811 102.0
176.046201 45.0
177.01979 558.0
177.04585 49.0
178.026099 98.0
178.036569 70.0
178.054869 55.0
178.071859 69.0
178.999897 726.0
179.011697 264.0
180.044696 23.0
180.061776 48.0
181.012125 1195.0
181.043755 164.0
182.077294 81.0
183.027632 28.0
183.050162 57.0
183.067382 104.0
183.079322 136.0
184.049551 47.0
184.054861 91.0
185.0623 236.0
186.032409 47.0
186.052439 31.0
187.030517 43.0
187.039887 327.0
187.065337 53.0
187.077387 35.0
188.046046 25.0
188.059486 28.0
189.022575 406.0
190.031364 220.0
190.162374 19.0
191.036052 161.0
191.091572 32.0
192.044741 23.0
192.050181 35.0
192.066471 45.0
192.99351 51.0
193.05475 46.0
193.06701 121.0
194.048279 29.0
194.076939 53.0
195.026588 155.0
195.030688 369.0
195.049858 137.0
196.051236 46.0
197.060695 702.0
198.067234 80.0
199.033473 44.0
199.052843 83.0
199.061123 110.0
199.070803 113.0
200.051971 44.0
200.063041 25.0
201.02166 58.0
201.03138 64.0
201.04943 73.0
201.05638 59.0
202.027109 61.0
202.056349 40.0
202.078619 65.0
203.033668 104.0
204.093096 26.0
205.013615 139.0
205.031855 134.0
205.043085 84.0
205.059915 99.0
206.023364 50.0
207.041213 81.0
207.063783 104.0
207.079293 33.0
208.071491 31.0
209.04623 29.0
209.06465 139.0
210.037459 46.0
210.068699 192.0
211.052368 133.0
211.076568 354.0
212.049757 59.0
213.056655 371.0
214.030084 39.0
214.045844 50.0
214.068784 55.0
215.034483 80.0
215.050283 218.0
215.061773 302.0
216.031132 35.0
216.045542 105.0
217.03731 71.0
217.0532 167.0
218.022699 61.0
219.036408 87.0
220.069907 20.0
220.088797 33.0
221.062115 248.0
223.047423 46.0
223.059123 53.0
223.081073 110.0
224.049272 84.0
224.125512 34.0
225.05336 462.0
226.067059 224.0
227.053508 54.0
227.071218 956.0
228.083537 52.0
229.044715 49.0
229.055095 51.0
229.084735 108.0
230.062884 22.0
231.028253 54.0
231.083333 18.0
233.039751 22.0
233.059191 38.0
233.08164 24.0
234.074269 79.0
235.053988 23.0
235.070498 84.0
236.046277 23.0
237.054246 292.0
238.064354 201.0
239.072073 861.0
240.033352 16.0
240.078882 44.0
241.051311 979.0
242.043979 63.0
242.062279 488.0
243.029548 780.0
243.041748 1887.0
244.623466 24.0
245.048056 46.0
248.049042 30.0
249.040551 67.0
249.056011 134.0
250.051069 20.0
250.072769 55.0
251.029488 20.0
251.052778 35.0
251.069848 146.0
251.103998 43.0
252.048717 63.0
253.054386 459.0
253.080896 92.0
254.062095 1135.0
255.024863 46.0
255.067093 2092.0
256.077212 1257.0
257.032811 44.0
257.064211 28.0
257.086211 173.0
257.097201 53.0
259.061218 75.0
259.075408 32.0
259.693878 21.0
260.069757 31.0
261.039056 104.0
262.064115 39.0
262.914824 20.0
263.067313 149.0
263.087973 25.0
264.059712 20.0
265.033261 55.0
265.049191 187.0
266.06451 336.0
267.067338 1726.0
268.056017 33.0
268.076867 143.0
269.048116 260.0
269.065786 165.0
270.053335 863.0
271.065263 3496.0
275.078289 39.0
277.054266 209.0
277.068946 74.0
278.057955 80.0
279.070044 315.0
280.051152 38.0
280.074102 75.0
281.045501 496.0
281.055361 490.0
282.0564 1011.0
282.400359 67.0
283.065829 14847.0
283.845948 61.0
284.073757 3507.0
285.078516 353.0
285.616335 21.0
286.086725 19.0
287.837463 24.0
289.273551 42.0
290.05718 38.0
290.07552 24.0
291.070759 173.0
291.082479 82.0
292.076098 38.0
293.039566 30.0
293.054646 52.0
293.083146 135.0
293.823225 24.0
294.056655 741.0
295.065444 8286.0
296.052353 109.0
296.065843 303.0
297.051041 659.0
297.064561 5493.0
298.05143 1074.0
299.060249 12027.0
300.070778 159.0
300.082648 107.0
301.074506 20.0
303.049504 20.0
303.071664 26.0
303.136484 25.0
305.083991 146.0
305.101111 44.0
306.02066 22.0
306.04636 35.0
306.05664 71.0
307.065189 1346.0
308.049618 57.0
308.077118 293.0
309.083796 1181.0
310.030055 32.0
310.054195 137.0
310.088685 31.0
311.065854 1779.0
312.067013 2822.0
313.073272 16720.0
314.04992 48.0
314.32946 76.0
314.37289 67.0
314.50491 48.0
314.56573 71.0
314.60915 33.0
314.65435 104.0
314.817709 77.0
315.111529 24.0
315.342829 30.0
315.558588 33.0
317.060417 35.0
319.060834 52.0
319.094074 27.0
319.522964 114.0
320.071273 57.0
321.023632 58.0
321.064012 39.0
321.076312 184.0
322.05302 59.0
322.0583 137.0
322.07939 94.0
323.069959 286.0
323.087569 3780.0
324.046158 48.0
324.063788 96.0
324.162548 24.0
325.080367 1186.0
327.061594 86.0
327.088144 278.0
328.042033 31.0
329.068362 25.0
331.056339 13.0
332.082028 38.0
333.062807 32.0
333.080687 223.0
335.043054 79.0
335.060974 156.0
335.077114 181.0
336.069513 936.0
337.070552 14924.0
338.046041 30.0
338.17214 17.0
338.74526 35.0
339.055439 105.0
339.064449 102.0
340.415088 28.0
341.071497 568.0
342.074516 29.0
342.117996 25.0
343.088064 3398.0
345.401842 23.0
347.0168 22.0
348.063248 62.0
348.395948 20.0
349.063667 226.0
349.076487 876.0
350.083876 153.0
351.092694 4971.0
352.147103 37.0
353.026372 31.0
353.059512 20.0
353.068702 57.0
353.077912 50.0
354.067081 52.0
355.08902 975.0
357.883786 43.0
359.074525 25.0
361.056082 40.0
361.072842 344.0
365.001857 29.0
365.072987 81.0
365.852066 21.0
366.078816 298.0
367.084155 14928.0
368.566513 19.0
368.669943 20.0
369.040602 32.0
369.100812 169.0
369.164812 40.0
369.452862 17.0
371.04564 28.0
371.08339 42.0
373.092087 51.0
373.114787 41.0
377.055362 36.0
378.052771 17.0
378.083261 173.0
379.09156 7799.0
381.410647 21.0
383.051975 31.0
383.080745 71.0
384.043854 36.0
385.094692 63.0
385.117762 38.0
386.73046 30.0
387.11779 40.0
388.255819 26.0
394.359941 36.0
395.08592 35.0
395.763809 35.0
395.812549 40.0
396.083479 254.0
396.118579 44.0
396.787608 26.0
397.095988 15570.0
398.346326 28.0
400.964703 28.0
401.459202 23.0
408.992153 29.0
411.732689 19.0
413.089468 44.0
413.101398 28.0
413.696957 46.0
413.718867 38.0
414.079617 117.0
414.095547 302.0
415.110865 16427.0
416.755113 28.0
416.819083 39.0
417.067123 44.0
419.858629 28.0
422.703746 29.0
427.49061 44.0
431.068936 19.0
431.101476 44.0
431.131985 32.0
431.618255 31.0
431.660985 26.0
431.707795 40.0
431.795345 35.0
432.112944 400.0
432.133304 185.0
433.115413 21589.0

