>compound 
>formula C12H14O4
>parentmass 223.0964899295
>ionization [M + H]+
>instrumentation Unknown (LCMS)
>source file:/Users/fanzhoukong/Documents/GitHub/Libgen/data/EAD_PFP/0_unknown_/spectrum.ms
>quality UNKNOWN

>ms2peaks
50.014047 127.0
51.021576 663.0
52.026425 57.0
53.036084 104.0
54.036004 15.0
55.018363 65.0
55.052523 13.0
55.932621 20.0
56.049172 9.0
56.9623 10.0
57.033301 25.0
57.065861 7.0
59.04834 38.0
60.982787 48.0
61.004208 6.0
62.013767 45.0
63.020716 259.0
64.016175 5.0
64.028715 36.0
65.036815 917.0
66.043244 114.0
67.052573 308.0
68.026732 8.0
68.056632 7.0
68.992451 142.0
71.04667 12.0
72.935117 18.0
74.011627 29.0
75.019636 40.0
76.029336 74.0
77.037185 1024.0
78.045614 515.0
79.052763 861.0
80.053222 50.0
80.058482 58.0
81.053792 7.0
81.067902 119.0
83.04769 23.0
84.959227 8.0
87.018586 8.0
87.024066 15.0
87.041427 5.0
89.037875 374.0
90.045514 77.0
91.056023 1347.0
92.052433 16.0
92.058073 113.0
93.067492 124.0
93.93613 9.0
94.041551 109.0
95.04743 37.0
95.06081 29.0
95.951158 9.0
97.064629 15.0
97.947807 14.0
98.981136 32.0
101.037455 10.0
102.046334 94.0
103.054254 584.0
104.051133 24.0
104.058133 30.0
105.031732 6.0
105.067882 479.0
106.042141 20.0
106.049211 15.0
106.063331 10.0
107.04827 102.0
107.06145 85.0
108.0561 87.0
109.065569 86.0
110.997437 29.0
113.000405 35.0
114.046265 9.0
115.052804 403.0
116.060603 47.0
117.069612 79.0
118.041471 69.0
118.046791 46.0
119.04835 236.0
119.069731 36.0
119.086831 9.0
120.05628 199.0
121.064149 1584.0
122.037278 14.0
122.049178 17.0
122.070828 102.0
123.042537 11.0
123.075147 23.0
123.083838 24.0
124.050836 23.0
125.059966 12.0
126.044585 21.0
127.052934 79.0
128.061983 204.0
129.068342 70.0
130.052941 13.0
130.066352 64.0
131.050251 65.0
131.082781 18.0
133.025809 29.0
133.039359 28.0
133.064209 175.0
134.051438 5.0
134.072978 69.0
135.078738 346.0
136.051687 230.0
137.060226 296.0
138.064425 22.0
139.072314 16.0
140.049053 11.0
140.917571 13.0
141.061813 32.0
141.071103 51.0
141.92529 7.0
142.075882 36.0
143.072471 7.0
144.07609 17.0
144.09019 20.0
145.08556 18.0
145.09855 28.0
145.965988 13.0
147.043837 87.0
148.051717 726.0
149.059466 1808.0
150.067005 673.0
151.073154 524.0
152.066954 63.0
152.077814 134.0
153.061573 26.0
153.070053 66.0
154.061872 29.0
155.062991 20.0
155.077631 12.0
155.083731 23.0
156.08083 8.0
157.062679 6.0
157.07496 7.0
157.08969 10.0
158.096879 22.0
159.113498 117.0
160.050297 21.0
161.058216 89.0
161.096757 23.0
162.065565 111.0
163.074805 950.0
164.083414 3123.0
165.056113 992.0
165.066183 735.0
165.088833 8.0
166.072082 34.0
167.070901 49.0
167.087372 35.0
168.077791 23.0
169.06735 8.0
169.09155 14.0
170.095569 11.0
171.093588 11.0
172.089377 8.0
172.111238 7.0
173.023636 6.0
173.071306 6.0
175.110975 10.0
176.048194 15.0
176.058584 10.0
177.055663 54.0
177.081733 31.0
177.092163 33.0
177.123454 48.0
178.064722 64.0
178.073872 41.0
179.071392 854.0
180.076971 1915.0
180.990449 8.0
181.08403 21.0
183.106599 6.0
184.111448 8.0
185.081747 6.0
185.115057 8.0
187.114395 31.0
189.055743 9.0
189.069213 30.0
190.060552 132.0
191.072112 60.0
192.078201 191.0
192.972599 11.0
193.04745 33.0
194.095569 353.0
195.101359 1955.0
196.085058 5.0
196.100148 9.0
199.122876 7.0
200.141615 6.0
202.078203 28.0
203.044412 6.0
204.077301 9.0
205.08476 24.0
205.114211 41.0
206.09609 9.0
207.032378 181.0
208.035767 7.0
208.073938 44.0
209.018946 19.0
210.990815 11.0
211.044895 4.0
215.082982 9.0
216.088411 6.0
218.073 6.0
219.092639 11.0
221.117188 6.0
223.093966 263.0
223.117376 63.0
223.171526 5.0

