>compound 
>formula C19H22O5
>parentmass 331.15400480691005
>ionization [M + H]+
>instrumentation Unknown (LCMS)
>source file:/Users/fanzhoukong/Documents/GitHub/Libgen/data/EAD_PFP/0_unknown_/spectrum.ms
>quality UNKNOWN

>ms2peaks
50.014575 301.0
51.022086 946.0
52.030447 75.0
53.000888 21.0
53.037268 121.0
55.01734 397.0
55.05077 62.0
56.023921 52.0
57.030741 30.0
57.069211 32.0
59.050203 135.0
60.974695 22.0
60.983105 31.0
61.009885 37.0
62.014066 95.0
63.023337 608.0
64.026638 63.0
65.039438 1634.0
66.028349 64.0
66.044269 78.0
67.05279 225.0
68.029351 34.0
68.996702 852.0
71.011314 32.0
74.014256 155.0
75.021417 233.0
76.032818 151.0
77.039819 3137.0
78.04565 240.0
79.053651 490.0
80.048831 63.0
81.067882 183.0
82.064983 28.0
83.048534 28.0
84.019975 59.0
85.042236 41.0
86.013437 29.0
87.023947 34.0
88.030258 85.0
89.038649 1710.0
91.050241 501.0
91.054911 2345.0
92.055052 167.0
92.996413 26.0
93.064443 90.0
94.062234 28.0
95.049104 94.0
95.085404 108.0
97.949467 22.0
98.982788 375.0
101.0391 248.0
102.045991 339.0
103.055881 1116.0
104.039772 34.0
104.061752 89.0
105.071503 1430.0
106.055864 38.0
106.068984 36.0
107.050895 194.0
109.058987 26.0
112.015889 31.0
113.03948 156.0
114.047841 101.0
115.055422 3821.0
116.061113 272.0
117.043614 25.0
117.063754 377.0
117.069054 582.0
118.039834 213.0
119.052035 282.0
119.060585 158.0
119.075555 36.0
120.081446 27.0
121.039827 35.0
121.064617 41.0
121.094797 46.0
123.047329 26.0
123.081019 18.0
126.048301 162.0
127.056652 1495.0
128.063493 1482.0
129.037564 108.0
129.065394 306.0
129.068724 710.0
130.057785 180.0
130.071195 63.0
130.697605 34.0
131.049496 1336.0
132.058487 210.0
133.038577 29.0
133.065687 743.0
134.037038 63.0
135.116639 30.0
137.060541 19.0
139.052953 133.0
140.048184 25.0
140.060934 34.0
141.071394 880.0
142.070305 51.0
143.048126 805.0
144.061067 456.0
145.024458 24.0
145.046868 178.0
145.057488 313.0
145.065758 564.0
146.033689 32.0
146.051449 43.0
146.069209 96.0
147.04643 722.0
147.05711 319.0
148.04716 34.0
149.045301 49.0
149.059661 61.0
149.065641 35.0
151.038423 96.0
151.046843 229.0
152.065924 676.0
153.070225 744.0
154.068116 65.0
154.076616 201.0
155.044847 157.0
155.061927 714.0
155.082667 81.0
156.054037 40.0
156.071177 55.0
156.090747 65.0
157.028438 449.0
157.037038 1114.0
157.064048 68.0
158.037899 106.0
158.058849 244.0
158.069929 196.0
159.04565 1962.0
160.051651 1688.0
161.053342 29.0
161.062052 865.0
162.028253 30.0
163.041123 43.0
163.077393 28.0
164.062144 62.0
165.070025 638.0
166.060776 67.0
166.077176 101.0
167.063357 57.0
167.084887 241.0
167.999098 24.0
168.021978 51.0
168.043548 129.0
168.058798 169.0
168.074038 117.0
168.839468 23.0
169.064819 483.0
170.03939 23.0
170.07132 55.0
170.0841 31.0
171.04747 2623.0
172.054711 366.0
173.030082 1645.0
174.027613 33.0
174.066363 376.0
175.038364 1506.0
176.062445 54.0
177.034766 27.0
177.059546 100.0
178.077737 63.0
179.070037 39.0
179.085767 93.0
180.086098 25.0
181.066829 231.0
181.080019 204.0
182.07268 87.0
182.09119 22.0
183.077351 387.0
184.056852 401.0
185.062993 1350.0
186.053133 29.0
186.059813 71.0
186.065153 168.0
187.044594 572.0
187.053954 2179.0
188.037345 44.0
188.046745 659.0
189.055606 2016.0
190.059077 26.0
190.069857 61.0
191.035388 166.0
192.069889 22.0
192.980579 26.0
193.09628 29.0
194.06947 47.0
195.083381 320.0
197.061393 477.0
198.055544 55.0
199.041125 3263.0
200.052686 80.0
200.073466 60.0
200.085936 77.0
201.027936 1367.0
201.045986 916.0
201.059876 341.0
201.089046 47.0
202.062637 275.0
202.352388 26.0
203.038578 6624.0
204.040649 38.0
204.060249 32.0
205.08026 39.0
207.030672 30.0
208.029833 26.0
208.053873 23.0
209.042713 41.0
209.076723 42.0
209.096553 74.0
209.931744 28.0
210.069434 37.0
210.090734 58.0
211.075895 806.0
212.061916 39.0
212.080466 115.0
213.055967 2189.0
214.062378 418.0
215.072579 4383.0
216.034769 23.0
216.043419 50.0
216.07509 86.0
216.32573 42.0
216.3531 23.0
217.0554 5611.0
218.058161 31.0
219.031362 82.0
221.058524 56.0
221.099304 33.0
223.077456 133.0
223.084786 96.0
224.069116 33.0
224.085236 21.0
225.045327 50.0
225.057077 158.0
225.074717 225.0
225.089407 93.0
226.056048 29.0
226.063418 61.0
226.109078 23.0
227.076419 500.0
227.086769 403.0
228.07101 41.0
228.08727 85.0
229.088491 6793.0
230.087462 53.0
231.066253 649.0
233.042054 35.0
234.088545 29.0
235.098346 25.0
237.094268 81.0
238.069709 31.0
239.072879 407.0
240.07817 144.0
241.077981 107.0
241.085571 334.0
242.084412 81.0
243.102133 1998.0
244.106664 121.0
245.047345 331.0
245.055005 166.0
245.068805 191.0
247.094206 23.0
251.09862 18.0
251.10949 23.0
253.089522 244.0
254.092603 74.0
255.102353 1206.0
256.087454 27.0
256.142354 34.0
257.085465 3221.0
258.066546 27.0
259.082567 303.0
259.101487 445.0
260.102198 29.0
261.119069 20.0
263.07931 25.0
263.09518 92.0
265.061212 29.0
265.083552 34.0
267.023374 20.0
267.138634 52.0
269.100406 95.0
269.121306 158.0
271.098387 2301.0
272.041168 26.0
273.061679 162.0
273.094059 232.0
273.108609 81.0
274.08408 56.0
274.17978 26.0
275.092141 7082.0
276.067902 34.0
277.188853 31.0
278.179753 44.0
278.191203 22.0
279.100374 26.0
279.234594 18.0
281.075966 46.0
281.113716 32.0
283.091438 196.0
283.099708 760.0
284.071359 72.0
285.086039 34.0
285.104229 65.0
285.133979 56.0
285.162119 41.0
286.04951 29.0
287.047771 27.0
287.080981 52.0
287.102551 46.0
287.132431 51.0
288.064442 28.0
288.076062 62.0
288.097672 44.0
288.144242 69.0
289.109513 8848.0
290.543774 44.0
295.128618 37.0
295.135368 46.0
297.11443 537.0
298.048941 19.0
299.130642 84.0
300.063222 29.0
301.043143 85.0
301.106043 96.0
303.125485 192.0
303.145935 98.0
311.052952 28.0
312.066233 110.0
313.145304 501.0
314.045635 33.0
315.100285 82.0
315.126385 635.0
316.064396 2164.0
322.993422 30.0
323.414353 19.0
329.063988 61.0
330.102619 59.0
330.131099 143.0
330.154229 222.0
330.725849 28.0
331.148219 14478.0

