>compound 
>formula C15H16O6
>parentmass 291.08741176633
>ionization [M - H]-
>instrumentation Unknown (LCMS)
>source file:/Users/fanzhoukong/Documents/Fiehnlab/library_generator/data/UVPD/0_unknown_/spectrum.ms
>quality UNKNOWN

>ms2peaks
49.008015 13876.0
51.023594 28047.0
55.018592 49547.0
59.01309 281572.0
63.023217 66742.0
65.002916 59217.0
65.038926 161074.0
67.018425 85388.0
68.997914 30352.0
69.034224 580840.0
77.039049 13135.0
79.018268 37634.0
79.054478 27125.0
80.026238 33639.0
81.034027 180908.0
81.070067 23748.0
83.013306 104134.0
83.049866 56398.0
85.028945 20260.0
91.018101 436595.0
92.025751 105615.0
93.03384 483350.0
95.012819 154846.0
95.049619 132773.0
96.021018 17264.0
97.028928 2760403.0
103.054224 30076.0
105.070153 42606.0
106.041153 47321.0
107.012602 17616.0
107.049452 132126.0
108.020362 436496.0
109.028961 646504.0
110.03689 73009.0
111.0438 48606.0
115.054978 26628.0
117.034436 16780.0
117.069796 21594.0
119.048685 39155.0
120.020995 34669.0
121.028144 328221.0
121.065314 116709.0
122.036434 63663.0
123.007573 147124.0
123.044193 80969.0
123.080833 31587.0
130.041719 31392.0
131.048948 452531.0
133.027967 50416.0
133.065857 44143.0
134.036817 39207.0
135.008346 57321.0
135.043716 74470.0
136.015986 29195.0
137.022925 400996.0
137.059105 30298.0
138.030644 293894.0
139.038964 613051.0
139.075924 24126.0
143.048701 36941.0
145.02889 32650.0
145.06452 38712.0
146.03539 29192.0
147.044739 65960.0
147.081139 31951.0
148.016269 32560.0
148.052999 58240.0
149.059908 522603.0
150.031767 18613.0
151.039067 42137.0
157.064493 79049.0
158.036863 34929.0
159.044122 93278.0
159.080732 31608.0
160.052352 18144.0
161.024121 30303.0
161.059231 82855.0
163.03909 102899.0
163.07485 129954.0
165.019249 642100.0
165.053389 85796.0
166.025188 147883.0
169.065777 13743.0
170.073276 18390.0
171.044165 25650.0
171.080205 21430.0
172.052485 52340.0
173.059924 101900.0
173.096594 56564.0
174.031894 53512.0
175.039413 374543.0
175.074233 20898.0
176.045693 26279.0
177.055602 24847.0
178.025761 34118.0
179.034781 51665.0
181.04996 91239.0
183.043489 32867.0
183.080699 31694.0
185.059327 41992.0
185.097167 35767.0
186.066127 20193.0
187.039976 52752.0
187.075676 65653.0
188.046386 138361.0
188.082376 18401.0
189.055365 197003.0
190.064065 33170.0
191.069494 144726.0
192.042933 13636.0
197.059131 34040.0
199.076149 58905.0
200.047689 44093.0
201.053898 132620.0
201.090628 37056.0
202.061538 21036.0
203.070547 154180.0
203.107837 47664.0
204.040206 215453.0
205.048356 500760.0
205.086186 22025.0
207.064785 26973.0
211.075942 27860.0
213.055251 33422.0
214.063761 22556.0
217.050199 119077.0
218.056118 532409.0
219.065578 594899.0
219.103878 16535.0
227.072453 19794.0
229.084112 253427.0
231.066061 113533.0
232.07239 45815.0
245.082303 14282.0
247.096532 586803.0
257.044966 16974.0
258.052205 13855.0
273.074897 16066.0

