>compound 
>formula C10H20O4
>parentmass 205.14344012288
>ionization [M + H]+
>instrumentation Unknown (LCMS)
>source file:/Users/fanzhoukong/Documents/GitHub/Libgen/data/EAD_PFP/0_unknown_/spectrum.ms
>quality UNKNOWN

>ms2peaks
50.014679 88.0
51.022189 283.0
52.02703 58.0
53.038811 211.0
54.038011 22.0
55.055252 1568.0
56.048243 22.0
56.058513 19.0
57.032353 78.0
57.056773 143.0
57.067873 207.0
57.935514 17.0
59.047345 66.0
60.984026 48.0
62.014227 33.0
63.019607 119.0
64.026018 21.0
65.036459 1092.0
66.041269 47.0
67.05378 1289.0
68.992021 54.0
69.066901 213.0
70.065352 15.0
71.047853 367.0
73.030014 16.0
74.015315 28.0
75.020785 71.0
76.030486 52.0
77.039187 981.0
78.034637 40.0
78.045887 97.0
79.054758 863.0
80.049959 47.0
81.070779 1090.0
83.066651 149.0
83.083611 232.0
85.064192 196.0
87.043413 28.0
88.025024 20.0
89.034315 129.0
90.044715 36.0
91.055206 1546.0
91.752016 17.0
92.050657 72.0
92.056297 106.0
93.069467 247.0
94.065388 61.0
95.046549 25.0
95.060879 82.0
97.06371 22.0
98.974341 76.0
99.992462 13.0
102.045333 53.0
103.049264 63.0
104.051105 26.0
105.069845 743.0
106.066306 43.0
107.082677 380.0
108.075367 20.0
109.104368 1883.0
110.998359 18.0
112.11167 25.0
113.00132 33.0
114.012651 31.0
115.054752 442.0
116.050942 33.0
117.057783 56.0
117.069443 98.0
118.065774 35.0
119.053504 37.0
119.084505 43.0
120.080775 27.0
121.027296 34.0
121.091966 22.0
123.110777 105.0
124.998368 24.0
126.045419 23.0
126.90143 17.0
127.05266 34.0
127.1134 748.0
128.05837 134.0
129.058021 33.0
129.068031 39.0
130.048172 33.0
130.064922 56.0
130.991632 23.0
131.062262 127.0
131.083582 59.0
132.016153 19.0
132.082573 33.0
133.103434 290.0
134.035214 24.0
137.096546 13.0
139.047658 17.0
140.047488 12.0
141.069539 63.0
143.08258 29.0
144.086231 59.0
145.070962 23.0
145.099282 29.0
145.971442 14.0
147.046913 40.0
147.067103 24.0
149.023074 52.0
149.060154 28.0
150.044895 14.0
151.082266 26.0
151.108756 84.0
152.060376 143.0
153.070737 54.0
154.057678 26.0
154.075928 31.0
155.061218 27.0
155.077088 32.0
156.059449 32.0
157.0793 35.0
159.047411 30.0
159.077061 63.0
159.096831 51.0
160.050932 19.0
160.062092 26.0
161.037702 19.0
161.128482 30.0
163.047904 41.0
163.065414 33.0
164.046384 15.0
165.070555 80.0
166.063846 34.0
166.073946 27.0
167.070236 37.0
168.078387 76.0
169.075578 21.0
169.081948 54.0
169.122698 35.0
170.094868 26.0
171.091609 27.0
172.10024 22.0
173.11054 17.0
174.028181 28.0
174.056601 47.0
174.128991 17.0
175.041532 24.0
175.059672 23.0
176.057822 48.0
176.066922 37.0
177.061423 38.0
178.057414 24.0
178.071794 32.0
181.079286 29.0
182.102356 22.0
185.114208 11.0
187.03983 34.0
187.13362 32.0
188.05541 16.0
189.069671 21.0
190.055622 18.0
190.065082 21.0
190.999452 36.0
191.077982 26.0
192.080003 30.0
192.983943 43.0
193.980014 13.0
194.094644 13.0
196.090986 15.0
197.103276 11.0
201.068849 13.0
202.075799 37.0
203.05877 10.0
203.08389 25.0
204.065091 25.0
205.064081 168.0
205.128611 24.0

