>compound 
>formula C23H34O16
>parentmass 567.1919660089401
>ionization [M + H]+
>instrumentation Unknown (LCMS)
>source file:/Users/fanzhoukong/Documents/GitHub/Libgen/data/EAD_PFP/0_unknown_/spectrum.ms
>quality UNKNOWN

>ms2peaks
50.012087 128.0
51.022367 796.0
52.027918 80.0
53.038278 130.0
54.032428 26.0
55.053248 478.0
56.050619 92.0
56.963009 14.0
57.041409 26.0
57.069529 28.0
57.932709 24.0
58.064759 18.0
60.9842 15.0
62.01362 47.0
63.02211 355.0
64.03089 27.0
65.0382 1190.0
66.041431 122.0
67.053941 291.0
68.024861 29.0
68.053951 20.0
68.995431 168.0
70.065511 22.0
74.007882 35.0
75.016693 61.0
75.023483 81.0
76.027213 101.0
77.041053 1302.0
78.041703 193.0
79.054033 838.0
80.052734 99.0
81.069164 327.0
82.059164 18.0
82.070704 43.0
83.080174 52.0
84.083244 23.0
85.048065 26.0
86.012025 18.0
87.021615 24.0
89.034445 35.0
89.037215 363.0
90.042056 54.0
91.055326 1811.0
92.053596 201.0
92.056416 255.0
93.059196 114.0
93.063916 74.0
93.069586 103.0
94.063607 49.0
95.053357 21.0
95.085827 84.0
96.079007 24.0
97.030047 35.0
98.092477 36.0
99.990618 21.0
100.110158 23.0
101.020828 34.0
101.037568 22.0
102.044458 88.0
103.052348 194.0
104.056209 75.0
105.068939 266.0
106.066409 115.0
107.074659 55.0
107.085819 23.0
108.072409 49.0
109.07991 25.0
109.09935 49.0
110.99846 36.0
112.00288 13.0
113.000371 55.0
115.053791 858.0
116.055251 129.0
117.059981 119.0
119.049312 68.0
119.062132 79.0
120.080852 54.0
121.064012 40.0
121.099592 17.0
122.082582 22.0
123.098893 19.0
125.038963 23.0
126.045483 46.0
127.052733 171.0
128.061764 618.0
129.065884 144.0
130.059384 14.0
130.070574 123.0
130.990574 48.0
131.078034 84.0
132.018465 17.0
132.035345 29.0
132.073625 34.0
133.075225 28.0
133.104635 51.0
134.076095 41.0
134.096515 30.0
135.043135 18.0
136.110785 25.0
138.045676 21.0
139.006106 28.0
139.052306 72.0
141.064926 188.0
141.930727 24.0
142.063797 24.0
142.071977 100.0
143.065047 19.0
143.083787 51.0
144.066277 22.0
144.073327 52.0
145.058007 33.0
145.075707 31.0
145.098137 20.0
147.044578 56.0
147.963068 31.0
148.110858 35.0
149.106828 17.0
151.055789 35.0
152.059199 130.0
153.069539 75.0
154.066209 31.0
155.064889 66.0
155.079539 39.0
156.08395 28.0
157.08546 49.0
158.08523 43.0
158.10494 40.0
159.08077 18.0
160.09927 41.0
161.089941 20.0
162.995371 17.0
163.062921 53.0
164.057671 19.0
165.068052 226.0
166.068882 128.0
167.065162 19.0
167.079092 102.0
168.060602 22.0
168.078382 88.0
169.062832 31.0
169.074292 42.0
169.099772 37.0
170.093573 70.0
171.096723 42.0
172.114363 25.0
173.105373 19.0
175.038924 52.0
176.057814 45.0
177.052274 34.0
177.122664 20.0
178.071754 121.0
179.065344 20.0
179.085004 57.0
180.082715 75.0
181.066065 37.0
181.073975 25.0
182.070595 18.0
182.097025 37.0
182.186935 24.0
184.102616 16.0
184.114576 25.0
185.066206 18.0
186.125856 19.0
187.054536 27.0
187.121516 13.0
188.060726 32.0
188.146706 14.0
189.061557 59.0
189.066937 54.0
190.056927 22.0
190.074487 52.0
190.996707 56.0
191.073877 37.0
192.085387 22.0
192.977067 81.0
193.002927 34.0
194.080928 27.0
194.097318 49.0
194.958088 17.0
195.096248 29.0
195.103108 22.0
196.122468 31.0
197.086728 18.0
197.130738 15.0
200.057399 21.0
200.104519 16.0
201.071569 18.0
202.075749 109.0
203.07124 14.0
203.11315 30.0
203.14525 50.0
204.08461 46.0
204.0986 19.0
205.08505 73.0
205.16081 13.0
206.0795 13.0
206.08936 24.0
206.19344 22.0
207.0651 539.0
208.033241 25.0
208.109541 24.0
209.013571 13.0
209.036231 26.0
209.073051 18.0
210.125381 30.0
213.069412 15.0
213.133762 13.0
214.163292 15.0
215.083212 39.0
216.090072 48.0
216.172172 17.0
217.087722 42.0
219.075443 16.0
220.081413 20.0
221.082403 17.0
222.104654 25.0
222.228764 24.0
223.145344 10.0
224.066744 39.0
225.066474 34.0
226.078724 43.0
227.077015 19.0
228.080455 22.0
229.075735 16.0
232.177556 17.0
233.108426 19.0
235.070376 12.0
236.104847 15.0
238.076337 19.0
239.079517 24.0
239.093167 44.0
241.089208 19.0
242.086528 27.0
242.982068 20.0
243.102718 21.0
244.107268 17.0
245.087798 14.0
247.074779 18.0
248.076689 21.0
248.994049 17.0
250.99987 43.0
252.08279 28.0
253.09011 22.0
254.12597 18.0
255.081041 36.0
257.079781 17.0
258.226091 18.0
259.109971 18.0
265.021953 39.0
266.021223 18.0
266.999953 50.0
269.099383 30.0
270.043534 13.0
271.079634 19.0
273.083294 18.0
276.161275 16.0
277.089985 15.0
278.147665 15.0
279.079696 27.0
280.091996 32.0
281.046986 63.0
282.062826 37.0
283.060716 28.0
284.063707 19.0
285.108147 14.0
287.068287 18.0
287.108147 28.0
290.118728 19.0
295.070329 31.0
296.084219 23.0
297.094779 35.0
298.09521 29.0
299.06685 34.0
299.10921 37.0
300.07909 21.0
301.08282 48.0
307.094171 13.0
308.085502 19.0
309.092212 16.0
311.074272 40.0
313.086943 22.0
313.111203 25.0
315.071313 35.0
315.095663 33.0
317.114284 102.0
323.069725 16.0
324.090025 19.0
325.087215 50.0
325.138425 22.0
326.096526 64.0
327.077296 33.0
327.103876 58.0
328.071956 20.0
329.078796 48.0
330.088956 100.0
333.100127 18.0
333.125147 23.0
336.076448 18.0
339.062408 18.0
340.111268 15.0
341.116489 125.0
342.088779 13.0
343.093289 77.0
344.106539 35.0
345.11218 80.0
346.08466 19.0
351.103461 60.0
353.077641 64.0
353.096071 34.0
354.087101 179.0
355.107212 24.0
357.118532 49.0
358.115202 19.0
359.126252 31.0
361.100503 26.0
362.117623 145.0
363.121223 101.0
368.114994 22.0
369.121225 183.0
370.076085 12.0
371.092535 48.0
372.100955 100.0
379.133247 20.0
385.105908 16.0
386.108168 104.0
387.123238 212.0
389.103339 96.0
391.313239 6.0
399.126511 63.0
403.119152 26.0
404.120892 308.0
405.133742 817.0
414.115124 6.0
415.204304 39.0
416.131025 21.0
417.138805 15.0
429.130357 39.0
446.132861 31.0
447.143181 21.0
454.197263 49.0
465.093105 17.0
471.142146 15.0
478.200228 20.0
495.153531 20.0
496.204771 24.0
496.215701 8.0
513.203005 18.0
531.279729 27.0
531.315869 55.0
532.271429 29.0
532.300789 51.0
549.173353 47.0
549.198563 41.0
549.327163 68.0
550.248243 20.0
564.059406 6.0
567.190626 1412.0

