>compound 
>formula C15H10O8
>parentmass 319.04484827886006
>ionization [M + H]+
>instrumentation Unknown (LCMS)
>source file:/Users/fanzhoukong/Documents/GitHub/Libgen/data/EAD_PFP/0_unknown_/spectrum.ms
>quality UNKNOWN

>ms2peaks
113.039683 38.0
115.056669 876.0
118.042141 146.0
119.051139 169.0
121.032444 540.0
122.036802 93.0
123.023569 386.0
123.042049 115.0
125.038615 136.0
126.034132 114.0
127.00489 87.0
128.064717 82.0
142.038814 53.0
146.033714 84.0
147.044072 646.0
148.051939 63.0
149.027367 601.0
150.034815 200.0
151.001102 181.0
152.01035 567.0
153.019317 2872.0
154.037705 274.0
154.064455 130.0
155.048492 241.0
157.029638 145.0
158.036625 150.0
159.048073 305.0
160.05159 254.0
161.057038 297.0
163.026043 371.0
164.019431 64.0
165.038489 122.0
166.034186 70.0
166.999964 910.0
168.005371 883.0
169.016339 5871.0
170.038007 335.0
171.044824 2785.0
173.032549 190.0
174.036547 409.0
175.039545 973.0
177.01639 162.0
179.031875 260.0
180.005783 95.0
181.01394 3576.0
182.022298 472.0
183.055975 125.0
185.014831 71.0
185.025501 82.0
187.040386 773.0
188.047893 212.0
189.056751 719.0
191.032486 204.0
192.043904 163.0
193.049791 89.0
195.028437 260.0
198.026349 55.0
198.031879 189.0
199.040877 2638.0
200.046904 330.0
201.031852 139.0
202.03315 199.0
203.035537 1474.0
205.044932 164.0
206.06881 72.0
207.037458 188.0
208.036625 151.0
209.008463 201.0
210.016621 357.0
211.027208 351.0
213.015633 50.0
215.034918 895.0
216.043096 1006.0
217.053634 1512.0
219.026689 968.0
220.038356 120.0
221.047994 254.0
222.011772 60.0
223.027379 104.0
224.143557 54.0
226.030652 180.0
227.03474 985.0
228.043997 107.0
229.051055 292.0
231.02566 175.0
232.037788 176.0
233.041645 576.0
234.058173 253.0
235.03334 95.0
235.04386 223.0
235.06188 317.0
243.028401 277.0
244.040419 7233.0
245.048426 7351.0
247.033702 383.0
248.033989 147.0
249.036267 51.0
251.174222 86.0
254.026535 51.0
255.031462 794.0
256.04152 143.0
257.040998 55.0
259.025303 114.0
260.03376 236.0
261.039398 1696.0
262.051756 744.0
263.059723 1204.0
271.026864 121.0
272.030922 999.0
273.043309 4957.0
274.051087 58.0
275.028224 69.0
276.028252 93.0
282.045178 101.0
283.023265 478.0
285.08045 83.0
289.033961 1544.0
290.042408 3344.0
291.050986 1068.0
300.030304 509.0
301.039062 3830.0
302.04443 91.0
303.015647 98.0
317.036214 2763.0
318.039961 12030.0
319.045269 32343.0
319.061019 14413.0

