>compound 
>formula C21H30O13
>parentmass 513.15786202131
>ionization [M + Na]+
>instrumentation Unknown (LCMS)
>source file:/Users/fanzhoukong/Documents/GitHub/Libgen/data/EAD_PFP/0_unknown_/spectrum.ms
>quality UNKNOWN

>ms2peaks
114.032907 35.0
115.056186 125.0
117.054965 30.0
117.066625 41.0
118.064004 36.0
119.085923 21.0
126.045719 20.0
126.906138 19.0
128.057547 74.0
129.070547 44.0
130.071886 36.0
144.065247 11.0
147.044705 101.0
147.964374 23.0
150.043843 51.0
151.053492 44.0
152.062921 171.0
153.062371 208.0
154.0663 39.0
155.038139 27.0
155.071079 44.0
156.085239 44.0
158.072987 23.0
159.041307 130.0
160.049756 47.0
161.025345 36.0
163.037944 19.0
164.045163 17.0
164.053953 39.0
165.066833 177.0
166.072722 30.0
167.077841 57.0
168.061901 104.0
169.04119 131.0
169.04756 276.0
170.041209 100.0
171.045469 121.0
171.073649 63.0
173.049967 37.0
175.037606 50.0
176.963625 30.0
178.070424 58.0
179.078413 32.0
180.089253 37.0
182.073201 21.0
184.05205 45.0
185.042159 691.0
187.039718 1819.0
188.045877 75.0
189.057427 119.0
189.068207 33.0
190.062246 43.0
191.002026 54.0
191.080565 32.0
192.079855 36.0
192.983784 49.0
193.982594 33.0
195.066063 45.0
197.109991 30.0
199.03466 29.0
199.07334 28.0
201.038089 373.0
202.040808 35.0
203.051577 674.0
205.045626 189.0
206.134205 36.0
207.036745 62.0
209.026134 27.0
210.993742 41.0
212.997741 22.0
215.00114 29.0
215.084469 49.0
216.184929 45.0
217.048558 70.0
219.067987 38.0
220.968606 27.0
226.988202 11.0
229.06213 11.0
231.053179 153.0
233.042358 76.0
237.135295 27.0
238.977764 17.0
240.994602 17.0
242.987871 24.0
246.103779 26.0
247.059058 284.0
248.975157 22.0
249.074097 20.0
254.979003 32.0
257.069992 55.0
257.967631 62.0
258.96455 73.0
259.05915 51.0
262.081028 53.0
265.018346 29.0
266.022406 20.0
267.983284 20.0
271.045352 12.0
275.09393 52.0
277.071588 76.0
279.989896 20.0
281.046536 40.0
282.057425 36.0
284.064874 13.0
285.077873 49.0
286.076132 38.0
289.11129 12.0
291.966598 54.0
293.060688 21.0
297.019945 12.0
299.068004 30.0
305.09864 204.0
307.081608 77.0
307.114238 55.0
308.986607 45.0
313.069034 12.0
317.091032 115.0
317.101472 923.0
319.06876 107.0
321.093049 87.0
323.106108 43.0
325.996856 24.0
331.078632 37.0
333.086941 52.0
333.094111 1180.0
335.09057 55.0
336.988698 26.0
337.091208 56.0
337.985708 54.0
338.993187 99.0
339.105027 100.0
343.201464 12.0
347.963601 12.0
349.09016 319.0
349.09199 676.0
350.09574 143.0
351.111919 884.0
353.981297 13.0
354.992046 29.0
355.996836 37.0
357.006725 22.0
363.97968 12.0
365.08505 334.0
366.090879 87.0
367.107478 5528.0
372.001885 12.0
375.004573 32.0
378.087851 12.0
379.10189 1461.0
381.120659 34.0
385.987966 20.0
390.986892 41.0
393.103041 57.0
393.120531 401.0
395.09834 126.0
407.093172 60.0
407.666571 12.0
409.11569 93.0
417.001825 45.0
421.128872 25.0
423.125481 34.0
427.122698 48.0
432.993765 20.0
433.020254 45.0
434.015614 268.0
435.018263 1960.0
437.135542 66.0
439.12861 33.0
453.036141 92.0
453.104951 77.0
454.99405 49.0
463.127224 33.0
465.132163 68.0
465.138483 149.0
468.062891 12.0
469.16561 217.0
474.111957 32.0
479.493854 12.0
481.123362 44.0
482.140272 62.0
483.162521 29.0
485.17582 17.0
495.139253 58.0
495.156713 121.0
511.139953 408.0
511.447842 131.0
511.496572 74.0
512.152582 349.0
512.611632 25.0
513.166251 19876.0

