>compound 
>formula C21H34O4
>parentmass 351.25299057410007
>ionization [M + H]+
>instrumentation Unknown (LCMS)
>source file:/Users/fanzhoukong/Documents/GitHub/Libgen/data/EAD_PFP/0_unknown_/spectrum.ms
>quality UNKNOWN

>ms2peaks
50.016136 118.0
51.024343 446.0
52.02919 150.0
53.038827 281.0
54.041614 21.0
55.055241 795.0
56.052618 56.0
56.057748 104.0
57.060426 83.0
58.066763 63.0
59.04801 74.0
60.050387 11.0
60.984684 51.0
62.016411 72.0
63.024128 348.0
64.028996 70.0
65.040223 1637.0
66.04186 109.0
67.054367 551.0
68.029314 27.0
68.048704 51.0
68.997471 109.0
69.069911 33.0
70.067548 70.0
71.056655 66.0
72.082632 125.0
73.05901 56.0
74.014987 35.0
75.009414 26.0
75.020444 112.0
76.030981 160.0
77.041398 1040.0
78.044635 222.0
79.055232 358.0
80.05042 101.0
81.070347 298.0
82.071894 35.0
83.051011 993.0
84.052998 109.0
85.027565 31.0
85.062795 55.0
85.077255 54.0
86.016832 23.0
87.02645 42.0
88.075966 92.0
89.040234 290.0
90.043221 129.0
91.054628 1498.0
92.055695 212.0
93.067922 119.0
94.047669 31.0
94.067619 55.0
95.047826 42.0
95.083166 87.0
96.088803 34.0
97.063041 53.0
98.098478 155.0
99.081855 115.0
100.076022 62.0
100.113262 40.0
101.040679 25.0
101.057419 110.0
102.045596 115.0
103.054483 430.0
104.054341 103.0
105.060038 62.0
105.070078 299.0
106.066525 68.0
107.049432 20.0
107.084912 103.0
108.084739 22.0
109.066706 76.0
109.080006 138.0
111.040861 65.0
111.08215 14.0
112.044428 43.0
113.002515 36.0
114.045232 25.0
115.054899 710.0
116.063736 325.0
116.108066 37.0
117.068503 283.0
118.04992 38.0
118.0595 74.0
119.049338 133.0
119.066437 207.0
120.018615 43.0
120.056185 32.0
121.029542 216.0
121.039242 141.0
122.029559 136.0
123.081506 66.0
124.085583 29.0
125.09264 31.0
126.046567 81.0
127.053805 379.0
128.062832 659.0
129.068069 424.0
130.067176 161.0
130.079466 34.0
131.056673 116.0
131.070133 70.0
132.0533 99.0
133.088727 42.0
134.065804 46.0
135.102261 76.0
137.050636 35.0
137.095356 35.0
139.05568 131.0
140.057857 93.0
141.070624 108.0
141.928272 28.0
142.074191 83.0
143.056719 32.0
144.097886 156.0
145.060233 80.0
146.03643 90.0
146.06721 56.0
147.045597 857.0
147.976004 29.0
148.046324 24.0
148.110694 21.0
149.095881 41.0
149.135371 65.0
150.035149 32.0
151.056836 102.0
151.074886 49.0
151.113415 44.0
152.061423 168.0
153.06813 211.0
153.07904 63.0
154.072087 130.0
155.052484 56.0
155.059794 65.0
155.074444 109.0
156.056801 97.0
156.097191 48.0
157.064358 360.0
158.119495 1771.0
159.118852 506.0
160.04822 110.0
161.053627 69.0
161.133217 157.0
162.023534 42.0
163.040151 62.0
163.118961 31.0
164.043608 25.0
164.059928 40.0
165.046385 52.0
165.067775 108.0
166.020653 27.0
166.063563 37.0
166.073663 60.0
167.08261 104.0
167.094 66.0
168.057787 42.0
168.064137 73.0
168.079387 45.0
169.067634 105.0
169.108384 46.0
170.058791 65.0
170.080501 83.0
171.042598 72.0
171.057968 68.0
171.083598 50.0
171.107938 45.0
172.044655 47.0
172.049795 94.0
172.079345 45.0
173.027733 29.0
173.058662 117.0
173.121822 41.0
174.02913 80.0
174.06014 74.0
175.046377 58.0
175.146176 51.0
176.047074 71.0
177.012831 23.0
177.061061 62.0
177.148401 17.0
178.074028 51.0
179.087275 46.0
181.069659 64.0
182.074187 89.0
183.078854 25.0
183.084164 64.0
183.102714 47.0
184.054371 48.0
184.088931 41.0
185.057818 237.0
186.063995 128.0
187.047432 99.0
187.058152 80.0
188.044219 160.0
188.058989 57.0
189.020747 262.0
190.021394 350.0
191.001691 43.0
191.030121 35.0
191.081571 50.0
191.092411 44.0
192.037448 18.0
192.084958 30.0
193.073265 38.0
194.057302 33.0
195.036989 24.0
195.099939 32.0
195.130029 34.0
196.050696 21.0
196.115156 29.0
197.040894 32.0
197.075273 45.0
198.062541 118.0
199.039838 90.0
199.055028 101.0
199.075768 49.0
200.047245 138.0
200.063865 110.0
200.984972 37.0
201.054412 169.0
201.169722 51.0
202.058549 177.0
203.072176 72.0
203.141966 20.0
204.074323 44.0
205.064921 36.0
205.16172 27.0
206.094468 29.0
207.018065 19.0
207.037795 27.0
207.095595 22.0
208.031312 16.0
208.051082 43.0
208.082182 26.0
209.051279 39.0
210.053876 32.0
210.065226 197.0
210.993394 43.0
211.075933 95.0
212.07765 339.0
213.053128 692.0
214.058105 1312.0
215.035252 42.0
215.066862 174.0
216.037679 54.0
216.053499 228.0
216.067909 265.0
217.046756 65.0
218.050953 23.0
219.06328 20.0
219.07777 22.0
221.090565 43.0
222.000412 26.0
223.008679 24.0
223.128659 41.0
224.023616 30.0
224.042696 30.0
225.033533 35.0
225.108483 27.0
227.035067 94.0
227.069017 316.0
228.073914 1107.0
229.048412 525.0
230.056199 917.0
231.052786 94.0
231.064706 89.0
232.070943 69.0
233.14817 27.0
233.17659 29.0
235.126794 17.0
236.013892 22.0
237.057979 345.0
238.060536 1442.0
239.006153 121.0
239.078843 37.0
240.04317 49.0
240.05835 33.0
241.045927 354.0
241.050497 681.0
242.055354 2569.0
242.999682 67.0
243.037881 50.0
243.062301 17.0
244.020849 39.0
245.038006 45.0
245.079426 19.0
245.192915 25.0
246.049603 22.0
247.13104 18.0
248.021967 115.0
248.040467 54.0
249.030394 30.0
249.229874 24.0
251.000689 116.0
252.169155 29.0
252.983393 65.0
254.00344 29.0
255.066197 347.0
256.071604 1227.0
257.042891 53.0
257.154401 22.0
258.049048 241.0
259.055575 63.0
259.210115 181.0
260.064063 190.0
261.04129 23.0
262.026697 35.0
263.163294 18.0
266.033185 27.0
266.053935 78.0
266.999123 159.0
268.00532 23.0
269.006967 43.0
269.024637 36.0
270.073274 36.0
270.084534 108.0
272.058678 29.0
273.072745 47.0
274.080562 150.0
277.178783 25.0
277.214673 105.0
278.037331 19.0
279.159008 26.0
281.042792 46.0
283.056547 69.0
284.066094 671.0
285.007991 53.0
287.203475 27.0
288.099012 241.0
289.067549 71.0
290.066076 73.0
290.079416 194.0
291.091373 17.0
291.158233 18.0
291.186653 24.0
291.196693 27.0
293.172608 15.0
295.003742 76.0
297.000937 19.0
297.071856 20.0
298.082413 409.0
300.052648 46.0
302.077062 71.0
305.199153 45.0
305.219693 33.0
307.063988 18.0
315.080685 20.0
315.198944 31.0
315.237204 33.0
316.088312 447.0
319.218793 23.0
327.01949 34.0
328.035357 21.0
333.143683 57.0
333.209843 104.0
334.10276 28.0
351.168321 54.0
351.205061 1013.0
351.210551 934.0
351.245441 155.0

