>compound 
>formula C26H28O14
>parentmass 565.1551865764201
>ionization [M + H]+
>instrumentation Unknown (LCMS)
>source file:/Users/fanzhoukong/Documents/GitHub/Libgen/data/EAD_PFP/0_unknown_/spectrum.ms
>quality UNKNOWN

>ms2peaks
50.015225 275.0
51.022736 222.0
52.031107 41.0
53.003698 41.0
53.037938 117.0
55.01584 185.0
55.034 91.0
57.033641 248.0
59.051653 49.0
60.982285 22.0
62.014006 34.0
63.024057 164.0
64.028148 26.0
65.038588 1167.0
66.043409 42.0
67.01824 613.0
68.024441 298.0
68.995012 515.0
69.004782 808.0
71.014554 48.0
73.028895 46.0
74.016716 22.0
75.023037 85.0
76.029328 53.0
77.038029 460.0
78.01183 54.0
78.0326 66.0
78.04385 75.0
79.017871 47.0
79.054451 98.0
80.033861 38.0
81.036062 123.0
81.057232 33.0
83.011854 53.0
85.029516 310.0
87.045807 540.0
88.032938 27.0
89.038569 535.0
90.04527 97.0
91.052961 1460.0
92.043692 77.0
93.022783 69.0
93.035063 182.0
94.040294 31.0
95.014644 177.0
95.062394 47.0
96.018005 221.0
97.028566 901.0
99.034358 25.0
99.992049 24.0
101.02227 29.0
101.04196 15.0
102.048871 88.0
103.055791 239.0
104.051662 20.0
104.059662 38.0
105.033253 38.0
105.048313 51.0
105.071413 79.0
106.071914 29.0
107.013305 14.0
107.044715 29.0
108.022986 22.0
109.028197 21.0
111.012348 67.0
111.042278 31.0
113.01959 27.0
114.035181 21.0
115.045862 1279.0
116.062063 52.0
117.057284 54.0
118.043984 193.0
119.051935 1375.0
120.062016 220.0
121.032167 914.0
123.008099 1892.0
124.01625 668.0
125.02303 38.0
127.038872 92.0
127.056542 275.0
128.061153 507.0
129.068614 189.0
130.068845 46.0
131.053866 332.0
132.018987 16.0
132.059497 73.0
133.052017 1896.0
135.012909 22.0
136.0176 17.0
137.024861 14.0
139.056293 468.0
140.055014 43.0
140.064274 76.0
141.073584 531.0
141.931255 13.0
142.049155 36.0
142.066675 35.0
143.029266 33.0
143.052686 51.0
144.065627 58.0
145.029048 397.0
145.044388 423.0
145.964899 28.0
146.070269 14.0
147.04034 58.0
147.07718 56.0
147.96361 22.0
149.024841 22.0
149.034411 43.0
149.041581 80.0
149.054731 26.0
150.029882 42.0
150.047872 96.0
151.053923 165.0
152.010214 177.0
152.031954 91.0
152.060944 71.0
153.021615 4953.0
154.055826 24.0
155.054467 197.0
156.052667 19.0
156.066137 84.0
157.065128 693.0
158.073469 103.0
158.085789 25.0
159.0418 56.0
159.05168 118.0
160.053961 350.0
161.060662 24.0
162.053033 18.0
163.029703 34.0
163.040963 284.0
165.049725 62.0
165.071135 59.0
166.051786 24.0
166.078296 23.0
167.037877 35.0
167.048007 72.0
167.058137 89.0
168.061178 485.0
169.062119 480.0
170.05967 26.0
171.03835 43.0
171.04732 183.0
171.08063 21.0
172.053261 24.0
173.050542 69.0
173.056982 55.0
173.064722 100.0
174.070093 26.0
174.077853 25.0
175.074504 29.0
177.059386 21.0
178.029216 15.0
178.081507 32.0
179.046277 24.0
179.056757 18.0
180.079378 17.0
180.089888 23.0
181.007349 46.0
181.057429 27.0
181.070619 64.0
181.086439 27.0
183.036091 25.0
183.083821 23.0
183.120921 19.0
184.042072 40.0
184.052702 96.0
185.061483 785.0
186.067663 312.0
187.041734 868.0
188.047905 27.0
189.013676 21.0
189.072946 25.0
190.081857 45.0
191.082618 16.0
192.099569 31.0
192.976329 28.0
193.04847 18.0
195.044901 109.0
196.055892 434.0
197.062603 1848.0
199.034015 54.0
199.040925 111.0
199.071335 29.0
200.045576 32.0
201.055526 62.0
202.066637 40.0
203.074698 160.0
205.04923 14.0
205.06606 18.0
207.027682 19.0
207.034722 52.0
208.114433 15.0
209.059533 18.0
209.779704 24.0
210.069234 20.0
211.027305 40.0
211.055765 35.0
212.026076 49.0
212.051736 90.0
213.050047 241.0
213.057197 2213.0
214.056438 112.0
214.066478 257.0
215.065199 70.0
215.070949 154.0
216.047539 22.0
217.08262 28.0
217.835261 30.0
218.084011 18.0
219.093502 23.0
222.121385 20.0
223.040666 48.0
223.049456 67.0
224.045426 101.0
225.061267 576.0
226.038168 21.0
226.063208 69.0
227.031949 23.0
227.051129 18.0
229.055671 591.0
235.224306 31.0
237.062368 15.0
239.069639 47.0
240.03849 24.0
241.051901 2399.0
242.059822 11077.0
243.045403 44.0
243.066783 190.0
243.577173 33.0
244.040644 17.0
245.117655 26.0
246.572226 22.0
247.058576 29.0
253.050342 227.0
254.058012 124.0
254.067382 192.0
255.067703 138.0
255.084913 74.0
256.073134 28.0
257.047535 17.0
259.052387 18.0
259.082327 26.0
262.35976 29.0
263.04092 18.0
263.13943 14.0
265.025902 15.0
266.935084 16.0
267.071164 47.0
268.074275 50.0
268.082305 56.0
269.048735 1166.0
270.057186 10903.0
270.801457 15.0
271.064267 24176.0
272.364168 42.0
272.467648 17.0
282.554117 78.0
283.064828 42.0
294.838978 55.0
297.07534 91.0
299.055812 38.0
302.376914 43.0
305.177067 2242.0
305.664977 4506.0
307.830229 149.0
309.07242 29.0
313.054874 52.0
313.077394 44.0
323.075882 18.0
325.068654 31.0
337.074795 51.0
340.338037 16.0
341.683929 76.0
343.07788 42.0
343.10871 23.0
345.622832 932.0
347.546914 346.0
349.068035 16.0
350.845617 21.0
355.07679 14.0
360.398145 417.0
361.071675 17.0
365.270249 16.0
367.075461 47.0
370.472924 16.0
373.087096 21.0
374.736997 26.0
379.084631 17.0
385.085766 89.0
385.099246 40.0
397.086937 25.0
397.102557 57.0
401.08901 20.0
403.039542 32.0
403.110342 163.0
410.742099 15.0
415.085602 29.0
415.105562 74.0
415.133512 32.0
431.100146 41.0
432.101427 21.0
433.118178 3546.0
445.122768 21.0
451.313514 27.0
461.105722 23.0
475.138694 22.0
517.135371 22.0
563.135111 15.0
565.119853 172.0
565.161783 3274.0

