>compound 
>formula C15H14O5
>parentmass 275.09140454907003
>ionization [M + H]+
>instrumentation Unknown (LCMS)
>source file:/Users/fanzhoukong/Documents/GitHub/Libgen/data/EAD_PFP/0_unknown_/spectrum.ms
>quality UNKNOWN

>ms2peaks
90.04586 22.0
102.04745 61.0
103.56814 22.0
105.03381 86.0
111.00567 45.0
113.03888 75.0
113.04617 82.0
114.04409 88.0
115.05691 10026.0
116.06365 1106.0
117.0716 646.0
118.04239 64.0
118.04452 95.0
119.05353 35.0
121.06611 14755.0
122.76103 87.0
125.04108 408.0
125.0608 143.0
126.04761 4160.0
127.05375 5437.0
128.06277 4231.0
129.06914 733.0
131.04765 210.0
132.49039 22.0
138.02711 63.0
139.05679 1221.0
140.06361 278.0
141.07292 9414.0
142.02631 1870.0
143.05786 2311.0
143.06724 1783.0
144.06024 9166.0
145.06847 10582.0
146.05417 115.0
146.07902 301.0
146.76775 45.0
147.08241 1817.0
148.596309 35.0
150.042359 163.0
150.048349 174.0
151.059229 1826.0
152.063839 4604.0
153.037839 3134.0
153.043899 11527.0
154.038049 2621.0
154.045329 10521.0
154.549119 236.0
155.057389 26067.0
155.779139 83.0
156.060479 12114.0
156.758819 91.0
156.827509 78.0
157.054549 13901.0
158.071469 2535.0
159.084269 6374.0
160.053209 1022.0
160.807599 82.0
161.062359 963.0
163.055169 47.0
165.009919 141.0
165.027529 199.0
166.040879 66.0
167.050989 3494.0
168.057809 9613.0
168.528029 90.0
169.067669 12711.0
170.048609 1193.0
170.056269 2065.0
170.498559 107.0
170.522889 85.0
171.069529 28144.0
172.054979 7232.0
172.765009 40.0
173.063869 7376.0
174.071839 314.0
175.078829 1763.0
177.084579 47.0
177.104129 149.0
178.118539 44.0
179.053269 229.0
180.056139 65.0
180.436229 51.0
181.035449 2647.0
182.038569 2958.0
183.047119 14882.0
184.054459 10923.0
185.061899 4841.0
186.068079 6882.0
187.078319 13423.0
188.085939 6374.0
189.065279 214.0
189.090869 55.0
189.675949 83.0
193.032549 23.0
195.048029 862.0
196.054919 1725.0
197.061609 12959.0
198.072299 4436.0
199.056529 16106.0
200.050119 4037.0
201.060089 6623.0
201.065639 8203.0
202.094859 394.0
202.106019 793.0
203.112779 1056.0
204.081439 63.0
205.090289 58.0
207.044969 68.0
209.016009 58.0
210.032699 8267.0
211.047609 15374.0
212.040689 300.0
213.056139 13179.0
214.069719 7086.0
215.077059 18778.0
216.079569 143.0
217.084429 293.0
219.101118 39.0
224.050188 126.0
224.328888 138.0
225.061628 15649.0
226.075348 111.0
227.063278 457.0
227.072138 680.0
228.045968 943.0
228.060768 1267.0
229.087158 2759.0
231.066368 62.0
231.082758 150.0
232.068138 61.0
233.081048 23.0
241.055268 207.0
242.063188 859.0
243.073208 12721.0
244.033288 38.0
245.084228 78.0
246.074398 55.0
246.102068 94.0
247.101988 1128.0
257.087108 4881.0
265.048508 70.0
275.082408 48.0
275.093788 503.0

