>compound 
>formula C29H32O13
>parentmass 647.19814208577
>ionization [M + C2H4O2 - H]-
>instrumentation Unknown (LCMS)
>source file:/Users/fanzhoukong/Documents/Fiehnlab/library_generator/data/UVPD/0_unknown_/spectrum.ms
>quality UNKNOWN

>ms2peaks
69.034054 9115.0
69.633404 4672.0
71.012875 44293.0
73.029086 17362.0
78.010579 13404.0
81.03387 7646.0
83.013161 101752.0
84.020992 13511.0
85.028792 324622.0
89.002985 4435.0
95.012688 138068.0
97.028789 12678.0
99.00816 129009.0
100.015261 21410.0
101.023631 9696.0
106.004694 14722.0
112.016077 6823.0
113.023238 509200.0
115.038969 11516.0
121.028032 99443.0
123.007473 45228.0
124.015434 6865.0
125.023835 11036.0
127.039476 508541.0
138.030572 69596.0
142.025534 11686.0
145.049446 118431.0
153.05377 95316.0
154.732341 7922.0
155.048991 13106.0
157.064432 62294.0
180.057565 5813.0
181.065626 9659.0
185.059308 12856.0
193.064122 9503.0
195.081383 8407.0
197.023504 5883.0
199.039965 10267.0
204.062128 21458.0
207.08079 7434.0
209.059201 12016.0
221.059788 26032.0
222.068878 10143.0
223.074179 23423.0
224.050299 4494.0
233.058604 12713.0
235.038315 9145.0
235.076995 6892.0
236.047356 7498.0
237.055096 16460.0
239.070178 7014.0
241.050769 4642.0
249.055573 31587.0
250.062914 19341.0
251.072104 60165.0
255.030596 10388.0
261.05558 16449.0
262.05922 6231.0
263.068681 6512.0
264.042491 5692.0
265.049542 19736.0
265.086592 6368.0
267.066913 5209.0
275.072197 8047.0
277.051719 38331.0
278.054529 14329.0
279.06777 168691.0
280.07146 11483.0
281.080591 27258.0
283.023212 7126.0
290.057676 6824.0
292.072847 21673.0
293.045227 21202.0
294.087398 9302.0
295.064448 8201.0
295.097079 9768.0
296.101039 6746.0
298.047 8943.0
305.045444 8216.0
306.054635 14827.0
307.063055 328113.0
308.064886 10183.0
309.077426 28651.0
310.118447 9456.0
311.129367 19521.0
313.070928 6361.0
321.040263 45996.0
322.086503 209816.0
323.056774 15028.0
323.094194 8964.0
324.100355 19466.0
325.111225 4849.0
337.107592 101075.0
338.073202 5066.0
339.123343 38896.0
349.065118 6052.0
351.047999 145089.0
353.104801 5185.0
366.074228 121464.0
367.083928 15722.0
381.094036 88989.0
382.102437 13822.0
395.111044 6180.0
397.133965 13402.0
421.126838 6197.0

