>compound 
>formula C18H37NO2
>parentmass 300.2897
>ionization [M + H]+
>instrumentation Unknown (LCMS)
>source file:/Users/fanzhoukong/Documents/GitHub/Libgen/data/NIST_MONA/0_unknown_/spectrum.ms
>quality UNKNOWN

>ms2peaks
45.0575 0.295126
45.0696 0.19941
48.0318 0.28715
48.0441 0.358938
50.0715 0.215363
50.2968 0.19941
54.0091 0.502513
54.055 0.366914
57.0322 11.645529
59.0473 0.295126
59.2732 0.295126
61.0632 0.358938
61.1094 0.19941
61.2405 0.311079
62.1664 0.183457
62.2028 0.175481
62.2973 0.167504
64.0053 0.446678
64.0264 0.303103
66.2215 0.191433
71.0481 10.831937
73.0289 0.255244
73.0636 0.263221
78.0662 0.255244
78.079 0.350961
83.0484 46.271038
84.0801 7.545665
85.0643 1.300152
85.1004 11.884821
86.0593 36.0134
91.0536 45.082556
92.1078 0.358938
93.0692 100.0
94.0493 0.37489
94.0647 7.210656
94.0729 7.154822
95.0489 10.225732
95.0724 7.77698
95.085 99.162479
96.0804 40.041477
97.0643 11.42219
97.1007 19.167265
98.061 0.279174
98.0678 0.646088
98.0959 0.933238
99.0685 0.805615
99.081 0.414772
100.0752 4.147723
100.2187 0.28715
105.0452 5.599426
105.0694 3.27032
106.2534 0.215363
107.0848 13.232831
107.9839 0.311079
108.0806 2.847571
109.0637 0.693946
109.1006 9.842865
110.096 4.323203
111.0229 0.19941
111.0798 0.438701
111.1178 0.438701
113.0832 0.151551
114.0915 0.77371
119.058 0.494536
119.0857 0.510489
121.1014 2.775784
123.1167 0.765733
124.1127 0.422749
125.1166 0.143575
131.0488 0.167504
133.0765 0.175481
134.2612 0.151551
135.0227 0.175481
138.0777 0.143575
138.1266 0.207386
152.1429 0.28715
157.1451 0.167504
160.0839 0.183457
162.008 0.358938
168.1751 0.239292
168.1967 0.19941
171.2191 0.191433
172.0495 0.438701
173.0958 0.167504
175.0744 0.191433
176.1448 0.167504
181.1559 0.175481
182.188 0.335008
184.207 0.630135
186.16 0.255244
191.0812 0.215363
193.1959 0.159528
194.1639 0.231315
194.1888 0.151551
196.0742 0.295126
198.2235 0.518465
201.0696 0.159528
202.0227 0.295126
211.2275 0.271197
212.1209 0.295126
219.2078 0.430725
220.2017 0.319056
221.1656 0.175481
224.2322 0.183457
226.0153 0.19941
226.2532 0.542395
227.0963 0.143575
230.1624 0.151551
231.0078 0.231315
234.2209 0.311079
236.2382 0.303103
237.2324 0.151551
238.2489 0.319056
242.0381 0.143575
250.2141 0.239292
250.2518 0.502513
252.2684 10.800032
253.0306 0.215363
253.1912 0.175481
253.2707 1.419797
254.1038 0.247268
254.1729 0.303103
254.247 0.175481
254.2834 0.279174
255.244 0.159528
262.2529 12.243758
263.2548 2.656138
264.2681 15.346574
265.1102 0.159528
265.2495 0.303103
265.2717 2.951264
266.2711 0.406796
282.2806 4.833692
283.2802 1.316104
284.2844 0.295126

