>compound 
>formula C23H29ClO4
>parentmass 405.18271809495
>ionization [M + H]+
>instrumentation Unknown (LCMS)
>source file:/Users/fanzhoukong/Documents/GitHub/Libgen/data/EAD_PFP/0_unknown_/spectrum.ms
>quality UNKNOWN

>ms2peaks
115.053957 101.0
119.086889 117.0
121.10407 252.0
125.016141 76.0
128.057503 253.0
128.064163 946.0
129.072733 440.0
130.086394 146.0
131.084944 651.0
132.067065 80.0
133.102535 3837.0
134.074016 76.0
135.042186 235.0
135.090016 447.0
135.115056 362.0
136.050397 120.0
137.088757 135.0
137.110547 180.0
137.134647 78.0
139.110258 1422.0
141.009279 332.0
141.055809 189.0
142.01613 80.0
143.02424 206.0
145.099511 284.0
147.116052 59.0
151.115014 117.0
155.033396 353.0
157.099167 89.0
158.081758 145.0
158.107618 72.0
159.116838 1420.0
160.068509 134.0
161.136169 1297.0
162.06268 242.0
163.10943 651.0
163.14697 801.0
164.049121 532.0
165.063251 1131.0
165.128691 321.0
166.067852 126.0
166.081742 301.0
167.032472 171.0
167.065382 102.0
167.089452 121.0
169.009573 3186.0
170.012054 229.0
171.025194 13428.0
172.090165 168.0
173.127525 348.0
173.133965 2281.0
174.102066 213.0
175.150636 8626.0
176.086627 238.0
177.151597 437.0
177.171147 800.0
179.006598 593.0
181.008319 3878.0
183.01719 449.0
184.051031 102.0
185.034461 1690.0
186.013862 97.0
186.104732 133.0
186.139472 117.0
187.017272 415.0
187.153942 2850.0
188.160413 928.0
189.166893 4836.0
191.175714 507.0
191.185194 529.0
193.161105 920.0
195.037686 292.0
195.060956 718.0
196.033567 82.0
197.001737 15767.0
198.012258 102.0
198.067418 287.0
198.344618 351.0
198.363928 359.0
199.021208 38647.0
200.016119 342.0
200.099259 122.0
201.020449 4269.0
201.167699 1409.0
203.06595 204.0
205.158281 309.0
207.176752 3348.0
209.032263 155.0
210.970024 592.0
211.036904 1490.0
212.082755 171.0
213.033955 9356.0
215.014556 484.0
218.069178 23.0
219.174348 2254.0
221.033189 304.0
223.01691 849.0
224.745041 23.0
225.035921 2418.0
227.052232 3268.0
231.104384 73.0
233.039955 183.0
235.019646 389.0
237.033327 5513.0
239.052608 5976.0
241.056079 896.0
243.0435 144.0
247.052032 404.0
247.879572 92.0
248.063132 158.0
249.036133 227.0
251.052994 835.0
253.063965 2196.0
255.081386 528.0
257.122547 111.0
263.05007 470.0
265.070151 4666.0
267.081962 5205.0
269.077263 153.0
269.091753 82.0
272.339534 70.0
275.039516 70.0
275.085016 77.0
277.065917 477.0
279.081718 1166.0
281.096649 5116.0
283.0776 96.0
283.11715 76.0
289.067233 287.0
290.070743 62.0
291.079374 912.0
293.098485 1057.0
295.085876 249.0
295.109436 284.0
303.07874 614.0
305.096201 402.0
307.103192 184.0
309.080603 166.0
309.090953 220.0
317.093797 825.0
319.099568 81.0
321.097609 195.0
321.132709 157.0
331.111834 850.0
333.116695 307.0
333.132775 1647.0
345.12179 276.0
345.14908 75.0
347.124721 133.0
349.159122 171.0
359.150917 176.0
360.148538 24.0
363.170299 121.0
369.166942 104.0
377.167856 50.0
377.186876 546.0
387.162371 325.0
387.173941 2503.0
387.189351 5464.0
405.18759 3915.0

