>compound 
>formula C15H16O6
>parentmass 310.12850923310003
>ionization [M + H3N + H]+
>instrumentation Unknown (LCMS)
>source file:/Users/fanzhoukong/Documents/GitHub/Libgen/data/EAD_PFP/0_unknown_/spectrum.ms
>quality UNKNOWN

>ms2peaks
50.014907 86.0
51.022417 329.0
53.034758 90.0
53.038318 443.0
54.032478 15.0
55.019148 729.0
56.056539 32.0
57.031839 88.0
58.064809 42.0
59.048319 203.0
60.050709 36.0
62.01522 24.0
63.02372 50.0
65.0351 21.0
65.03747 1473.0
66.044671 257.0
67.024321 262.0
67.037151 578.0
68.022491 56.0
69.017461 586.0
70.040151 16.0
71.010912 23.0
71.038982 118.0
74.016372 14.0
76.031553 54.0
77.037683 1639.0
78.044363 280.0
79.054973 1513.0
80.060694 95.0
81.069234 386.0
82.040604 64.0
83.040074 203.0
85.028265 140.0
87.016205 43.0
89.036375 87.0
90.039346 38.0
90.044916 65.0
91.059146 1731.0
92.057436 81.0
93.068726 1307.0
94.041837 144.0
95.048657 1230.0
96.046447 57.0
97.052327 150.0
97.065837 465.0
98.037267 26.0
99.043748 88.0
100.109268 19.0
101.055388 87.0
102.046518 84.0
103.054428 1275.0
104.060299 149.0
105.069039 1512.0
106.079619 70.0
107.054489 332.0
107.084899 28.0
108.057229 102.0
109.06466 1021.0
110.03667 63.0
111.04397 848.0
112.05171 98.0
113.045251 65.0
113.059831 187.0
114.036901 24.0
115.055991 1495.0
116.059571 421.0
117.071741 1102.0
118.059572 49.0
118.078732 40.0
119.084692 1511.0
120.088472 40.0
121.063042 1154.0
122.029662 25.0
122.068622 30.0
122.622323 25.0
123.043573 501.0
124.047503 39.0
125.037983 19.0
125.059893 447.0
126.045603 148.0
127.048423 186.0
127.053943 883.0
128.064084 3876.0
129.069334 2574.0
130.077394 798.0
131.050114 36.0
131.083754 2300.0
132.054595 108.0
133.064055 231.0
133.084395 2238.0
133.092305 899.0
134.034255 31.0
134.073945 59.0
134.086425 128.0
134.105715 44.0
135.048955 118.0
135.063755 510.0
135.068295 499.0
136.060625 36.0
136.578756 24.0
137.061156 3029.0
138.843436 26.0
139.030486 153.0
139.044346 756.0
139.080156 29.0
140.054616 80.0
140.061576 69.0
141.070866 2599.0
142.079117 1836.0
143.085097 1615.0
144.055817 137.0
144.067567 153.0
144.081687 131.0
144.094627 70.0
145.062857 20.0
145.080557 1355.0
145.088807 1134.0
145.100617 429.0
146.073418 152.0
147.083898 1610.0
148.089528 111.0
148.573938 19.0
149.075858 46.0
149.099778 1165.0
151.040269 434.0
152.062949 129.0
153.064829 403.0
153.516009 23.0
154.076069 110.0
155.072349 1427.0
156.08163 64.0
156.0963 20.0
157.10523 1984.0
158.07552 148.0
159.08091 1191.0
159.08832 778.0
159.1217 29.0
160.08703 135.0
161.059001 82.0
161.081371 3578.0
162.071331 34.0
162.123711 20.0
163.075571 230.0
163.094341 889.0
163.111851 191.0
164.064091 55.0
164.087931 48.0
165.064412 573.0
165.073222 866.0
166.077872 137.0
167.086832 922.0
168.054402 80.0
168.063282 104.0
169.047692 84.0
169.087182 439.0
169.101192 311.0
170.075843 577.0
171.064833 40.0
171.081473 429.0
172.088803 541.0
173.097783 3424.0
174.061903 61.0
174.077413 119.0
174.105863 48.0
174.530084 33.0
175.112954 4388.0
176.050154 55.0
176.069654 45.0
177.083724 506.0
177.087624 947.0
178.062774 37.0
178.075844 112.0
179.085174 45.0
179.100884 454.0
179.104824 738.0
180.080245 46.0
180.985825 17.0
181.046455 40.0
181.071495 52.0
181.089965 37.0
182.074715 46.0
182.189735 30.0
183.083375 581.0
184.086816 52.0
185.098356 3811.0
186.065866 64.0
186.099286 50.0
187.073456 119.0
187.085506 1598.0
187.092206 1752.0
188.078356 186.0
189.060367 196.0
189.068467 1091.0
190.077357 74.0
190.101667 28.0
191.106537 2053.0
192.074687 22.0
192.082837 41.0
192.099117 31.0
193.087497 217.0
195.075908 103.0
195.081388 309.0
197.053898 92.0
197.059398 112.0
198.068698 152.0
199.075009 65.0
200.086689 30.0
201.091189 3909.0
202.074529 53.0
202.095409 37.0
203.10913 5274.0
204.08199 74.0
205.08804 1160.0
206.105 23.0
207.03285 51.0
207.06246 93.0
208.032011 45.0
209.107221 31.0
209.117141 118.0
211.078071 690.0
212.086931 21.0
213.091042 1255.0
214.064562 91.0
215.069052 267.0
216.078742 35.0
217.047522 39.0
217.061942 52.0
217.085022 44.0
218.096563 56.0
219.107533 3191.0
220.099053 34.0
221.105903 34.0
221.120473 446.0
222.120904 17.0
223.073844 51.0
224.058154 35.0
226.151094 15.0
227.043265 44.0
227.072795 42.0
228.080645 44.0
229.089285 2317.0
230.086755 25.0
230.329035 21.0
231.102775 1916.0
232.100146 30.0
233.083216 290.0
234.108816 20.0
236.142697 28.0
237.111637 217.0
239.070637 160.0
241.165478 20.0
243.093778 20.0
245.080328 32.0
247.101179 4087.0
248.107749 21.0
249.107109 24.0
249.116389 44.0
251.10254 13.0
257.081581 1740.0
259.067611 26.0
264.220622 16.0
265.109913 1835.0
266.996993 25.0
271.113724 12.0
274.083295 16.0
275.092975 1052.0
280.198806 19.0
281.055436 68.0
284.047447 23.0
291.189538 8.0
292.094598 35.0
293.108389 1895.0
295.205219 13.0
310.128442 1371.0

