>compound 
>formula C17H14O5
>parentmass 299.09140454907003
>ionization [M + H]+
>instrumentation Unknown (LCMS)
>source file:/Users/fanzhoukong/Documents/GitHub/Libgen/data/EAD_PFP/0_unknown_/spectrum.ms
>quality UNKNOWN

>ms2peaks
115.05346 207.0
117.034211 24.0
118.044232 119.0
119.014762 31.0
119.050032 33.0
120.016103 47.0
121.032413 3465.0
122.034604 315.0
123.042025 50.0
124.573486 28.0
126.051716 63.0
127.050147 56.0
127.055677 96.0
128.062498 104.0
129.076638 65.0
133.01836 33.0
133.02626 211.0
134.041691 45.0
135.046162 149.0
137.062933 1585.0
138.070593 814.0
139.042664 106.0
139.056524 188.0
140.058725 41.0
141.067995 142.0
142.079746 71.0
143.089236 81.0
144.005897 61.0
144.021167 418.0
145.022198 35.0
145.064678 41.0
145.072928 33.0
145.101248 53.0
146.040888 1110.0
147.032269 50.0
147.045329 277.0
148.053219 89.0
149.02267 223.0
149.03942 91.0
149.05497 182.0
150.0373 125.0
150.0469 432.0
151.061381 1619.0
152.063582 7785.0
153.071532 5983.0
154.076723 183.0
155.054683 176.0
155.065653 223.0
155.076643 193.0
155.090073 239.0
156.030864 28.0
156.059024 94.0
157.066575 464.0
158.076155 44.0
159.042026 103.0
159.100086 36.0
159.116146 57.0
160.127316 60.0
161.018597 67.0
161.023587 156.0
161.043477 134.0
161.085737 49.0
161.135487 54.0
161.477627 57.0
162.034567 8981.0
163.038688 4036.0
164.045899 248.0
164.060959 483.0
165.062529 12593.0
166.08229 131.0
167.04949 88.0
167.07102 97.0
168.060121 2313.0
169.067432 3684.0
170.054772 95.0
170.072652 220.0
171.050083 564.0
171.062923 509.0
171.077003 169.0
171.087253 204.0
172.045773 26.0
172.067603 37.0
173.022404 96.0
173.032704 99.0
173.130674 54.0
175.038415 79.0
175.059155 28.0
176.053396 200.0
177.050476 109.0
177.063506 143.0
177.111736 60.0
178.073877 127.0
179.047797 188.0
179.060907 336.0
180.057228 528.0
181.066859 11310.0
182.043649 84.0
182.074049 579.0
183.08269 936.0
184.0569 774.0
185.063021 2656.0
186.033132 48.0
187.032562 35.0
187.040602 371.0
188.057513 34.0
189.065063 43.0
189.998344 51.0
190.026694 310.0
191.031364 60.0
191.044914 38.0
191.150535 48.0
192.035965 142.0
192.056335 219.0
193.065006 482.0
194.074936 153.0
195.054677 317.0
195.061517 528.0
195.075197 320.0
195.087517 99.0
196.057457 1920.0
197.061428 8660.0
198.070719 2322.0
198.524579 41.0
199.078449 1697.0
200.04716 183.0
200.07211 99.0
200.08457 185.0
201.05573 82.0
203.095832 28.0
203.144692 121.0
203.174002 30.0
205.039613 38.0
205.052223 58.0
206.029723 53.0
207.033524 124.0
207.043374 147.0
207.484814 84.0
208.053864 579.0
209.062555 5367.0
210.068026 3220.0
211.077296 3626.0
212.054777 654.0
212.067627 387.0
213.058827 1772.0
213.916198 29.0
214.066668 30.0
215.092689 40.0
215.104189 152.0
217.12323 29.0
219.048761 54.0
220.057581 193.0
221.061422 732.0
222.071933 168.0
223.033543 138.0
223.048183 543.0
223.064273 411.0
224.036824 37.0
224.048564 1381.0
225.052654 927.0
225.058524 2226.0
226.069285 2280.0
227.073446 3949.0
228.062096 74.0
228.075416 321.0
228.088726 106.0
229.075127 38.0
231.084098 28.0
231.140678 52.0
231.177918 30.0
233.185609 39.0
234.21293 32.0
235.04423 91.0
235.18542 27.0
236.033511 53.0
236.051561 254.0
237.059541 11964.0
238.068142 17585.0
239.075873 13259.0
240.079653 2220.0
240.571683 151.0
240.697814 33.0
241.056644 2513.0
242.081334 61.0
243.102085 3397.0
245.191456 43.0
246.370947 45.0
247.037187 41.0
248.045188 65.0
248.054438 100.0
248.072958 59.0
248.673518 63.0
249.059868 1499.0
250.064229 104.0
250.073529 85.0
251.03492 283.0
251.05045 495.0
251.06751 229.0
251.30662 62.0
252.04948 1256.0
252.07903 301.0
253.058301 3299.0
254.062871 6697.0
255.071012 23096.0
256.076423 3244.0
256.595593 43.0
256.790203 43.0
257.044563 29.0
257.648023 40.0
258.234874 29.0
263.077657 46.0
263.373247 27.0
264.068467 38.0
265.054768 13272.0
266.062088 17019.0
267.068129 16981.0
268.07604 5551.0
268.6939 44.0
269.04891 446.0
269.06017 1006.0
269.07302 1189.0
270.089531 729.0
271.087021 156.0
271.099931 312.0
272.310992 29.0
272.686152 34.0
273.842403 46.0
274.561023 37.0
279.034816 40.0
279.056116 31.0
279.065916 100.0
281.054497 412.0
281.067657 721.0
282.044028 56.0
282.058838 165.0
282.111508 83.0
282.598748 58.0
283.063348 31712.0
284.069609 19559.0
284.913939 46.0
285.006529 40.0
285.08261 45.0
285.47806 50.0
285.54761 51.0
285.73965 58.0
285.84399 27.0
285.91189 52.0
286.17532 14.0
286.56323 28.0
288.698152 27.0
289.009492 45.0
293.963415 58.0
295.143645 44.0
296.574226 42.0
297.078867 1452.0
297.729287 31.0
298.075907 159.0
298.096197 2556.0
298.602117 117.0
298.669837 50.0
298.746038 37.0
299.081368 79.0
299.091528 35099.0

