>compound 
>formula C26H30O7
>parentmass 453.19187683712
>ionization [M - H]-
>instrumentation Unknown (LCMS)
>source file:/Users/fanzhoukong/Documents/Fiehnlab/library_generator/data/UVPD/0_unknown_/spectrum.ms
>quality UNKNOWN

>ms2peaks
57.034077 6038.0
65.002731 7615.0
66.010752 4317.0
67.018253 44458.0
68.997124 4739.0
69.034054 9760.0
71.012875 30776.0
71.049515 6189.0
79.054319 14544.0
80.02608 7405.0
81.03387 14504.0
83.048891 10799.0
85.028792 9596.0
85.492813 3876.0
91.054326 4346.0
93.033697 10990.0
93.070327 7835.0
94.005597 6033.0
94.041807 9289.0
95.012688 22582.0
95.049478 21477.0
97.028789 18310.0
97.065739 5896.0
105.070024 18343.0
106.041034 12588.0
107.049335 25521.0
107.086205 4655.0
109.028836 12194.0
109.065516 4557.0
111.043677 9192.0
119.048571 19810.0
119.086231 15499.0
120.056182 4843.0
121.065212 33479.0
122.036333 6542.0
123.044093 10116.0
129.069607 4175.0
131.048858 5787.0
131.085908 5474.0
133.064119 20456.0
134.0734 12317.0
135.04364 18072.0
135.08071 22382.0
136.051681 10411.0
137.059021 7950.0
145.064466 18957.0
147.044687 42110.0
147.081067 42947.0
149.059858 10309.0
149.096978 50147.0
151.074889 4514.0
153.09036 5191.0
155.084231 4339.0
156.470182 4021.0
157.064432 11592.0
159.080693 11735.0
161.059174 8295.0
161.096484 17172.0
163.074816 9761.0
163.110586 28529.0
165.092057 4497.0
169.065739 4788.0
171.08016 14514.0
173.059901 7851.0
173.094121 7527.0
175.074202 12318.0
175.111502 7800.0
177.126413 5471.0
181.065626 5279.0
182.071606 7919.0
183.080687 10988.0
185.097148 9273.0
187.111379 7317.0
189.09165 9548.0
189.12795 12123.0
195.081383 5494.0
197.094774 16805.0
199.076165 8704.0
199.112345 5832.0
201.090627 6630.0
201.127377 6200.0
203.107848 5379.0
203.145138 5153.0
209.098141 6650.0
211.075972 9728.0
211.112182 9602.0
213.091993 8700.0
215.106534 10025.0
215.143804 4653.0
223.074179 7023.0
225.09083 4522.0
227.145991 5136.0
229.121372 9476.0
237.090356 5750.0
237.125636 5693.0
239.105898 7447.0
241.123109 4922.0
241.159289 4548.0
243.1008 6631.0
247.113282 5187.0
251.106264 5894.0
253.121865 4946.0
257.115858 16008.0
257.191108 4713.0
263.105331 4597.0
265.123672 14374.0
266.127573 5204.0
277.121049 4969.0
285.187613 6918.0
289.121245 6176.0
303.138283 5211.0
305.154144 5172.0
317.154401 17602.0
321.188523 5684.0
331.173448 5344.0
333.14922 6789.0
337.180722 9396.0
339.197103 4750.0
341.170774 4487.0
347.203187 9722.0
349.142178 8019.0
361.146675 15803.0
363.196356 4597.0
391.194422 9211.0
396.319544 4737.0
407.18533 20498.0
435.182056 6893.0

