>compound 
>formula C21H20O12
>parentmass 465.10275707944
>ionization [M + H]+
>instrumentation Unknown (LCMS)
>source file:/Users/fanzhoukong/Documents/GitHub/Libgen/data/EAD_PFP/0_unknown_/spectrum.ms
>quality UNKNOWN

>ms2peaks
50.015322 219.0
51.023533 433.0
52.031914 77.0
53.038746 461.0
54.041537 22.0
55.017388 225.0
55.028288 173.0
57.033751 99.0
61.030596 1027.0
62.013348 55.0
63.021829 329.0
65.035542 103.0
65.039492 1250.0
66.042733 147.0
67.019154 106.0
67.026374 113.0
67.052844 82.0
68.026985 33.0
68.997577 1468.0
71.009719 30.0
73.029022 255.0
74.014303 52.0
75.022315 214.0
76.029456 117.0
77.039867 700.0
78.043969 153.0
79.01974 36.0
79.05283 173.0
80.049771 80.0
81.033553 556.0
83.011985 60.0
85.030558 1480.0
87.017611 23.0
88.031232 45.0
89.037793 229.0
90.047275 30.0
91.045626 2284.0
92.023157 80.0
92.036317 107.0
92.054177 74.0
93.030489 86.0
93.036159 124.0
94.04994 83.0
95.049171 43.0
96.021032 23.0
97.030644 1056.0
98.013525 28.0
99.029636 18.0
99.044256 53.0
101.023409 20.0
101.042119 44.0
102.04704 78.0
103.052962 168.0
104.055823 56.0
105.052494 62.0
105.067554 121.0
106.067026 30.0
107.009407 30.0
107.046907 31.0
108.020088 142.0
109.03143 249.0
110.036181 43.0
111.009412 146.0
113.003095 60.0
113.037465 67.0
115.055488 744.0
116.064339 70.0
117.05428 19.0
117.06488 152.0
118.045222 39.0
119.046763 75.0
119.083103 43.0
120.021404 20.0
120.063264 42.0
121.028036 495.0
123.015888 26.0
123.047398 202.0
124.015339 179.0
125.022121 28.0
126.038472 90.0
126.045072 139.0
127.040163 127.0
127.042373 539.0
128.063575 189.0
129.043196 36.0
129.065466 38.0
130.061207 35.0
130.072398 26.0
131.045099 67.0
131.054049 130.0
133.060131 30.0
134.037123 77.0
135.026774 57.0
136.016655 43.0
137.022767 570.0
139.036869 68.0
139.049559 53.0
140.050581 17.0
141.069142 51.0
142.054033 39.0
143.050555 58.0
144.059956 89.0
145.049307 831.0
145.969849 25.0
147.04651 186.0
148.015061 31.0
148.050811 22.0
149.023863 199.0
150.032484 145.0
151.043325 30.0
151.110755 32.0
152.011627 25.0
152.045457 27.0
152.058747 95.0
153.020618 2185.0
154.046319 67.0
154.056039 65.0
154.071849 32.0
155.051031 869.0
156.090832 28.0
157.064123 59.0
158.039214 48.0
158.098335 35.0
159.043256 120.0
160.051727 44.0
161.022358 24.0
161.060878 263.0
162.03333 32.0
163.042451 164.0
165.018514 832.0
166.029305 121.0
167.053326 62.0
167.069766 34.0
168.072858 39.0
169.067469 28.0
169.094219 23.0
170.02159 24.0
171.043712 329.0
172.053493 113.0
173.062374 332.0
174.032866 20.0
175.039757 127.0
176.033958 27.0
176.052148 74.0
177.02836 58.0
177.05312 43.0
178.076531 24.0
179.034742 66.0
179.070122 35.0
180.078314 17.0
181.007615 33.0
181.086695 17.0
183.044308 286.0
184.047649 34.0
184.052959 48.0
185.05776 35.0
186.029181 59.0
187.040673 315.0
188.050864 35.0
189.028765 46.0
189.052995 188.0
190.056467 26.0
190.068607 24.0
190.998938 18.0
191.038198 69.0
192.031979 41.0
192.045539 24.0
192.063199 41.0
192.975251 19.0
193.003831 45.0
193.014711 126.0
194.027252 72.0
195.028763 212.0
195.049283 50.0
199.038439 174.0
200.04864 760.0
201.054421 646.0
202.026543 31.0
203.035894 405.0
203.107084 14.0
204.047755 150.0
205.046717 99.0
205.055127 71.0
207.030789 90.0
208.035601 29.0
209.081092 29.0
210.036903 24.0
211.041825 137.0
212.044916 24.0
212.054896 21.0
213.050357 61.0
214.023778 30.0
215.03247 114.0
216.043511 100.0
217.051172 716.0
218.058284 145.0
219.032925 63.0
219.053225 106.0
219.066265 91.0
221.001838 16.0
221.041158 15.0
225.030743 24.0
227.033736 364.0
228.043007 1196.0
229.050058 2281.0
231.033621 106.0
232.038282 45.0
234.055685 15.0
238.02902 28.0
239.035142 138.0
240.043393 24.0
241.053774 22.0
242.986197 23.0
243.031997 40.0
244.037918 106.0
245.04746 1452.0
246.056001 263.0
247.060462 274.0
255.030523 121.0
256.040564 271.0
257.044775 1404.0
258.052497 69.0
259.030678 36.0
260.028059 33.0
261.044811 48.0
265.051776 12.0
267.017109 52.0
268.965571 20.0
269.047501 31.0
271.027554 23.0
272.034845 87.0
273.042387 3107.0
274.046938 1810.0
275.054929 253.0
275.84183 20.0
279.134895 18.0
281.053107 92.0
282.067328 56.0
283.01249 21.0
283.0438 51.0
284.018661 18.0
284.036841 104.0
285.039862 922.0
286.047984 69.0
287.026355 30.0
299.059631 27.0
300.015872 27.0
300.031132 92.0
301.039884 3371.0
302.043555 9051.0
303.053986 15044.0
304.119088 32.0
304.334388 50.0
304.539498 97.0
307.047401 21.0
311.060017 33.0
315.050012 34.0
316.634304 22.0
327.050298 24.0
329.065931 32.0
331.048563 22.0
345.058992 37.0
348.186896 21.0
351.02781 22.0
356.389117 64.0
357.068158 22.0
361.796654 362.0
364.125847 46.0
368.056362 16.0
369.062503 32.0
399.071363 14.0
411.066369 24.0
447.101457 16.0
465.14353 23.0
465.206941 64.0
465.251291 37.0

