>compound 
>formula C20H22O6
>parentmass 376.17545942648
>ionization [M + H3N + H]+
>instrumentation Unknown (LCMS)
>source file:/Users/fanzhoukong/Documents/GitHub/Libgen/data/EAD_PFP/0_unknown_/spectrum.ms
>quality UNKNOWN

>ms2peaks
50.014076 156.0
51.024375 460.0
52.030634 125.0
53.040303 148.0
55.036412 253.0
55.053852 58.0
56.046091 29.0
57.03313 49.0
59.012738 49.0
60.984797 29.0
62.014226 36.0
63.022705 343.0
65.038793 1103.0
66.046002 404.0
67.053731 342.0
69.04078 111.0
69.06032 87.0
71.045288 51.0
75.013885 96.0
75.021525 103.0
77.036483 114.0
77.039923 1567.0
78.044022 357.0
79.054621 462.0
81.03359 143.0
81.04417 141.0
81.07327 104.0
82.066849 40.0
83.086118 36.0
85.030576 55.0
88.028494 46.0
89.036873 148.0
91.055911 1525.0
92.057 91.0
94.039489 659.0
95.085458 890.0
97.036416 61.0
97.066336 37.0
99.045214 83.0
102.047012 218.0
103.055911 2019.0
104.06078 102.0
105.055459 109.0
105.066509 143.0
106.059918 29.0
107.050918 333.0
108.022077 121.0
109.028306 41.0
109.064116 105.0
111.040314 26.0
111.044444 58.0
113.096762 1258.0
114.047832 161.0
115.058571 3883.0
116.0611 328.0
117.069039 578.0
118.038758 48.0
118.047268 197.0
118.063238 50.0
119.049877 185.0
119.068057 82.0
119.086227 50.0
120.057807 44.0
121.034416 38.0
121.080756 68.0
121.103396 49.0
122.037695 1058.0
123.048384 186.0
123.089684 69.0
124.041423 26.0
124.051243 154.0
125.060352 108.0
126.048261 160.0
127.056611 1196.0
128.06455 1124.0
129.069789 943.0
130.054388 106.0
130.070028 39.0
131.051687 2231.0
132.056166 529.0
133.028336 48.0
134.036975 39.0
135.043714 281.0
137.060472 2313.0
139.05403 69.0
139.11642 71.0
141.071319 112.0
142.062038 44.0
143.049207 1818.0
144.057446 686.0
145.066845 298.0
146.037144 232.0
147.041574 101.0
147.061754 87.0
147.084344 78.0
149.060752 112.0
150.064701 468.0
151.04192 2264.0
152.062179 227.0
153.054349 267.0
153.056779 778.0
154.074068 58.0
155.053257 220.0
156.061266 108.0
157.066355 1129.0
158.063624 56.0
158.073484 116.0
159.046753 518.0
159.055403 228.0
160.053983 3321.0
161.060662 495.0
162.050541 62.0
162.065511 54.0
163.07349 1464.0
164.060749 58.0
164.070789 47.0
165.067338 346.0
166.065667 50.0
166.077027 57.0
167.073327 180.0
168.056096 99.0
169.064665 49.0
169.078675 84.0
170.090314 36.0
171.056273 54.0
171.070363 24.0
172.051952 1205.0
173.059542 412.0
174.070071 367.0
174.51626 33.0
175.07707 3869.0
175.08613 5668.0
175.786819 25.0
176.064859 163.0
177.064568 206.0
177.081508 264.0
178.068397 151.0
179.069836 144.0
179.077706 164.0
180.079336 73.0
181.067935 110.0
181.096945 70.0
182.085704 42.0
183.057253 43.0
183.066533 51.0
184.051332 331.0
185.058761 72.0
187.07787 4251.0
188.050549 38.0
188.092199 67.0
189.090398 2204.0
190.068297 69.0
190.075047 167.0
191.060896 62.0
191.077146 252.0
192.079165 37.0
193.067475 56.0
193.086535 80.0
194.071944 71.0
194.088334 27.0
195.073563 59.0
196.053062 116.0
197.059781 163.0
198.06631 46.0
198.07871 36.0
199.075419 84.0
200.066289 40.0
201.069338 98.0
202.080477 227.0
203.069016 84.0
203.082986 391.0
204.071165 22.0
205.088424 1060.0
206.074454 43.0
206.091324 20.0
207.048733 72.0
207.085393 65.0
207.100893 29.0
208.091732 37.0
209.041031 37.0
209.062281 59.0
209.118941 38.0
210.06915 53.0
211.077019 378.0
212.045938 189.0
213.045668 46.0
213.077118 39.0
215.069426 29.0
215.085216 31.0
217.086844 604.0
218.072333 120.0
219.081813 353.0
220.090692 57.0
221.072771 119.0
221.094621 66.0
222.06871 49.0
223.075689 68.0
223.088839 49.0
223.107869 46.0
225.056747 69.0
225.065567 87.0
226.067507 54.0
227.073146 470.0
228.081025 30.0
229.059994 40.0
231.082282 310.0
231.091232 110.0
232.091551 80.0
233.059641 36.0
233.094031 67.0
234.0687 119.0
235.078449 139.0
235.093469 253.0
237.089377 95.0
239.061906 37.0
239.069496 411.0
240.076285 159.0
241.082174 117.0
243.077312 27.0
245.09756 97.0
246.06779 35.0
247.076889 454.0
248.084958 274.0
249.088907 110.0
250.063896 73.0
250.079386 37.0
251.107535 153.0
252.080235 20.0
253.087544 95.0
255.067522 660.0
256.071381 85.0
258.073979 30.0
259.083739 488.0
260.082798 65.0
261.091737 80.0
262.096256 28.0
263.105865 662.0
264.079254 126.0
265.087883 308.0
266.084103 25.0
267.102962 84.0
268.078881 108.0
269.08389 119.0
270.090779 1354.0
271.099538 764.0
272.103748 40.0
273.093587 26.0
273.140527 23.0
274.072256 57.0
275.068925 34.0
276.077194 171.0
277.084003 132.0
278.086132 31.0
278.097582 49.0
279.103192 528.0
280.115521 56.0
281.08696 85.0
281.11323 76.0
283.095898 257.0
285.087197 28.0
285.110337 51.0
289.084023 55.0
290.099282 32.0
291.107941 2014.0
292.116671 132.0
293.0802 102.0
293.09864 56.0
293.11542 48.0
294.095709 37.0
295.096128 174.0
295.121368 61.0
296.101627 172.0
297.112216 171.0
299.102995 41.0
305.157949 113.0
307.096458 66.0
308.101557 330.0
309.113456 180.0
310.121845 56.0
311.130144 789.0
313.130843 57.0
313.141253 52.0
321.118786 29.0
322.120185 43.0
323.130164 1759.0
325.103673 35.0
327.125711 181.0
329.132699 24.0
340.12991 25.0
341.126119 55.0
341.142389 415.0
357.132095 52.0
358.149145 31.0
369.686675 8.0
376.184929 140.0
376.196309 105.0
376.215329 229.0

