>compound 
>formula C13H10O5
>parentmass 269.04204442015003
>ionization [M + Na]+
>instrumentation Unknown (LCMS)
>source file:/Users/fanzhoukong/Documents/GitHub/Libgen/data/EAD_PFP/0_unknown_/spectrum.ms
>quality UNKNOWN

>ms2peaks
50.012687 149.0
51.020896 407.0
52.027155 83.0
53.035394 73.0
54.031704 19.0
55.016203 18.0
55.052543 275.0
55.932641 22.0
57.031111 39.0
57.065881 40.0
57.932779 21.0
58.991919 18.0
59.04686 33.0
60.050019 15.0
60.982807 54.0
62.015327 40.0
63.020736 282.0
64.027955 37.0
65.036055 903.0
66.040084 61.0
67.052603 303.0
68.046962 26.0
68.996551 87.0
69.066552 79.0
70.065841 13.0
71.04835 57.0
73.064048 28.0
74.012497 50.0
75.019666 101.0
76.026805 96.0
77.037225 988.0
78.038724 111.0
79.052803 289.0
80.049752 82.0
81.063532 75.0
81.067942 225.0
82.061501 34.0
83.04951 73.0
83.08344 67.0
85.063138 91.0
89.031445 21.0
89.038835 129.0
90.042764 45.0
91.054193 1429.0
92.055283 192.0
93.067522 281.0
94.064391 47.0
95.08472 269.0
95.951198 22.0
96.064469 23.0
97.063699 62.0
97.948817 19.0
99.040637 118.0
100.044416 16.0
101.034545 16.0
102.045384 103.0
103.051314 210.0
104.029193 26.0
104.056173 37.0
105.065912 118.0
105.067922 247.0
106.071441 91.0
107.06555 43.0
107.082781 150.0
108.06429 25.0
109.067669 59.0
109.098359 98.0
111.042897 64.0
112.993165 30.0
113.008785 23.0
113.051485 23.0
114.037944 28.0
115.053904 435.0
116.053263 64.0
117.059062 55.0
117.063302 95.0
118.064941 50.0
119.081541 120.0
120.06385 35.0
120.08102 41.0
121.095469 106.0
123.077367 43.0
123.989796 11.0
125.055636 62.0
126.042435 24.0
127.056304 126.0
128.060913 260.0
129.053922 33.0
129.070612 38.0
130.068622 70.0
131.041341 88.0
131.082821 181.0
132.07057 31.0
133.091399 42.0
133.095919 125.0
134.096859 47.0
135.077658 52.0
135.092458 55.0
135.119788 24.0
136.056307 15.0
137.093536 27.0
139.056184 20.0
139.090844 39.0
140.049113 17.0
141.063033 35.0
141.068853 157.0
142.070092 57.0
143.070191 27.0
144.07968 49.0
145.09036 62.0
145.10333 48.0
146.095099 23.0
147.041517 132.0
147.957626 19.0
148.119727 36.0
149.128887 79.0
150.045475 58.0
151.037094 19.0
152.060974 137.0
153.070123 67.0
154.068002 60.0
155.074041 70.0
156.07109 23.0
156.087011 35.0
157.027159 82.0
157.08731 29.0
158.101869 84.0
159.077708 24.0
159.102428 33.0
159.118498 39.0
160.015667 16.0
160.091257 37.0
161.094346 26.0
161.114227 51.0
162.120506 24.0
163.034844 31.0
163.077385 37.0
163.121155 42.0
164.045834 28.0
165.070033 140.0
166.065832 20.0
166.070882 33.0
167.060851 32.0
167.076041 40.0
167.083641 59.0
168.067711 19.0
168.084221 52.0
169.07124 35.0
169.08906 56.0
170.082859 36.0
170.100749 33.0
171.085968 27.0
171.105178 39.0
172.103608 29.0
172.117738 34.0
173.028856 27.0
173.130677 134.0
174.041895 21.0
174.116866 35.0
174.134966 54.0
175.038465 257.0
176.114554 103.0
177.093543 70.0
177.126144 57.0
178.076562 69.0
179.080662 33.0
179.089832 19.0
180.080991 41.0
181.06829 29.0
181.08147 37.0
182.104569 21.0
183.096078 36.0
183.110649 24.0
184.116848 35.0
185.021846 29.0
186.031935 14.0
187.071595 24.0
187.135906 65.0
187.145296 68.0
188.009324 31.0
188.150395 25.0
189.066593 69.0
189.094884 26.0
190.047132 27.0
190.067392 26.0
191.110112 124.0
191.130422 53.0
193.08564 33.0
193.121041 19.0
194.068339 22.0
194.12978 40.0
195.097349 30.0
195.137019 59.0
196.102988 15.0
196.120808 28.0
197.130457 36.0
198.119256 34.0
198.134417 22.0
201.096314 13.0
202.030942 19.0
203.031932 67.0
204.036801 17.0
205.04836 17.0
205.128341 68.0
205.157781 130.0
205.181651 26.0
206.09055 23.0
207.038098 58.0
208.086738 22.0
209.096937 40.0
209.122437 52.0
210.061316 15.0
211.094796 31.0
213.017783 20.0
213.162205 19.0
215.144863 62.0
216.123062 15.0
216.148972 18.0
217.106371 15.0
219.131879 23.0
221.102707 32.0
223.107226 62.0
223.151126 62.0
223.181866 27.0
225.045834 26.0
225.067884 16.0
227.100602 30.0
231.026619 541.0
232.037258 57.0
233.151798 83.0
234.149097 35.0
236.073275 16.0
237.111474 35.0
237.149195 28.0
241.144051 16.0
246.055046 45.0
247.062576 72.0
248.989533 18.0
251.163003 52.0
251.169213 91.0
254.10272 18.0
265.019011 18.0
266.01828 35.0
267.006639 18.0
269.088438 85.0
269.110938 180.0
269.126988 125.0

