>compound 
>formula C22H18O11
>parentmass 459.0922
>ionization [M + H]+
>instrumentation Unknown (LCMS)
>source file:/Users/fanzhoukong/Documents/GitHub/Libgen/data/NIST_MONA/0_unknown_/spectrum.ms
>quality UNKNOWN

>ms2peaks
58.0047 0.202982
64.039 0.188983
72.0411 0.125989
73.0154 0.132988
76.0758 0.146987
79.0171 0.153986
83.0607 0.139987
84.1149 0.230979
89.0445 0.349969
90.0417 0.188983
94.066 0.181984
95.0498 0.125989
96.0994 0.125989
97.0082 0.125989
97.0168 0.209981
98.0313 0.139987
99.1021 0.195982
102.0786 0.153986
103.998 0.167985
106.0056 0.244978
106.0835 0.174984
107.9954 0.307972
110.0567 0.125989
115.1475 0.125989
116.0111 0.202982
116.0255 0.125989
117.04 0.146987
118.0262 0.139987
120.0995 0.195982
121.9988 0.174984
122.1151 0.132988
124.058 0.125989
125.9675 0.244978
127.0479 0.174984
130.0136 0.132988
130.0299 0.22398
133.0642 0.153986
133.1065 0.22398
135.1139 0.21698
136.0002 0.146987
136.0874 0.146987
136.9958 0.125989
137.9921 0.160986
139.0387 100.0
140.042 9.029187
140.9975 0.272975
141.0431 0.496955
141.0769 0.230979
142.0251 0.132988
142.052 0.32897
142.0747 0.132988
143.1308 0.125989
147.9955 0.125989
148.1341 0.21698
148.9732 0.307972
149.0229 0.174984
150.139 0.272975
151.0384 20.277175
152.0421 2.197802
153.0178 11.800938
155.046 0.202982
155.0764 0.251977
159.0651 0.188983
160.0442 0.160986
163.0389 3.401694
164.0437 0.587947
167.035 0.160986
172.011 0.139987
173.0146 0.125989
173.0376 0.125989
173.0561 0.174984
173.1169 0.174984
175.0391 0.125989
175.9961 0.146987
177.0518 0.181984
177.9785 0.139987
177.9927 0.160986
178.028 0.139987
179.0341 0.587947
181.0494 7.909288
182.0526 1.33688
182.1083 0.21698
183.0562 0.209981
183.0899 0.139987
183.1063 0.139987
185.075 0.181984
189.0234 0.174984
189.0616 0.132988
189.9823 0.21698
190.0111 0.286974
192.0041 0.21698
192.1089 0.237979
193.0049 0.209981
194.1401 0.230979
196.1347 0.307972
197.0953 0.188983
200.977 0.167985
200.9886 0.230979
201.1039 0.146987
203.0848 0.174984
205.0502 1.826836
205.9846 0.132988
207.1215 0.132988
208.0336 0.174984
210.1122 0.167985
211.9527 0.384965
213.041 0.265976
213.0556 0.321971
216.0166 0.398964
219.1052 0.33597
221.1335 0.167985
221.9944 0.146987
224.0455 0.132988
225.0113 0.244978
225.0238 0.195982
228.0374 0.132988
229.0484 0.349969
229.0874 0.139987
230.1251 0.146987
231.0641 0.258977
232.0354 0.174984
232.9887 0.22398
236.0987 0.139987
237.0577 0.321971
238.0011 0.160986
240.0584 0.22398
244.9653 0.21698
245.0464 0.181984
245.1192 0.125989
247.0616 0.286974
248.1264 0.160986
249.9769 0.146987
253.0474 0.32897
253.9975 0.209981
254.106 0.146987
256.9861 0.132988
257.0506 0.132988
258.1297 0.125989
259.0608 0.727934
260.026 0.300973
260.0616 0.174984
261.0126 0.132988
261.0426 0.160986
261.0928 0.160986
262.0038 0.202982
262.0441 0.153986
264.0624 0.125989
265.0072 0.125989
269.0446 0.195982
271.0604 0.867922
272.0664 0.125989
275.0582 0.153986
276.9717 0.125989
277.0732 0.258977
277.1209 0.251977
279.1144 0.160986
279.9686 0.125989
280.9755 0.132988
283.9538 0.174984
284.1199 0.132988
285.1265 0.230979
287.0543 3.464688
288.0649 0.699937
289.0709 82.158606
290.074 14.124729
291.0498 0.762931
291.0777 1.385875
291.1501 0.146987
291.9799 0.153986
292.0575 0.398964
293.065 0.461958
293.0847 0.244978
294.0034 0.160986
298.9757 0.342969
303.0174 0.160986
305.0655 13.99874
306.0684 1.882831
307.0816 8.973192
307.101 1.021908
308.0833 1.259887
309.0082 0.195982
309.085 0.279975
311.0121 0.174984
321.0607 0.874921
322.0553 0.230979
333.0597 1.245888
334.0645 0.244978
370.0806 0.181984
393.0691 0.244978
432.9867 0.251977
457.0883 0.125989
459.0926 1.280885
484.9508 0.125989

