>compound 
>formula C28H38N2O7
>parentmass 515.27518257059
>ionization [M + H]+
>instrumentation Unknown (LCMS)
>source file:/Users/fanzhoukong/Documents/GitHub/Libgen/data/EAD_PFP/0_unknown_/spectrum.ms
>quality UNKNOWN

>ms2peaks
125.039119 22.0
126.047839 155.0
127.053989 409.0
128.059699 888.0
129.069379 419.0
130.061788 420.0
131.077078 369.0
131.087168 531.0
132.054648 274.0
133.099128 1275.0
134.059248 157.0
135.043318 196.0
135.115048 270.0
137.061207 64.0
139.055947 59.0
141.065107 115.0
143.086316 72.0
148.041896 59.0
151.041545 57.0
152.061785 73.0
153.070925 57.0
155.032145 83.0
158.070634 149.0
159.053774 357.0
159.113084 158.0
160.068474 1244.0
161.056554 644.0
162.050174 223.0
162.053914 718.0
163.059344 331.0
164.039033 220.0
165.056903 202.0
165.072013 687.0
166.065293 308.0
167.071693 151.0
168.070953 173.0
168.090013 167.0
169.061753 141.0
170.056723 293.0
171.057182 218.0
171.077682 348.0
172.047732 354.0
173.056602 1085.0
174.058082 420.0
175.148002 710.0
176.033302 374.0
176.059302 526.0
177.043352 765.0
178.053671 3514.0
179.052431 940.0
179.061621 646.0
180.073721 263.0
181.047811 309.0
182.061541 130.0
182.095901 129.0
183.067511 89.0
184.070921 143.0
185.06108 607.0
186.05924 522.0
187.07349 1775.0
188.07034 4452.0
189.16818 5239.0
190.05715 1083.0
190.1733 171.0
191.17838 4872.0
192.072019 233.0
194.104359 83.0
195.080059 119.0
196.078779 222.0
197.066319 154.0
197.074569 156.0
198.048049 184.0
199.066768 488.0
200.075648 1127.0
201.074558 1266.0
202.053698 844.0
202.063428 368.0
203.056118 220.0
203.184568 158.0
204.069438 958.0
205.058627 217.0
206.076917 184.0
207.176697 511.0
208.071627 61.0
210.080187 88.0
211.079547 112.0
212.064146 210.0
212.072706 240.0
212.079846 468.0
213.082516 478.0
214.048836 589.0
214.058886 677.0
215.064766 571.0
216.067276 8048.0
217.074976 2252.0
218.082136 1486.0
219.077125 160.0
219.091625 150.0
220.067115 240.0
221.135085 66.0
223.079735 105.0
224.077265 101.0
225.084365 167.0
226.065714 149.0
226.086334 622.0
227.061034 152.0
227.080214 212.0
227.099404 266.0
228.067394 3280.0
229.064124 1005.0
229.078964 1664.0
230.077894 1062.0
231.065594 65.0
231.079004 132.0
232.061394 153.0
232.097214 131.0
234.110363 53.0
235.070623 93.0
238.090193 160.0
239.094933 157.0
239.110083 185.0
240.068402 168.0
240.097242 305.0
241.087942 459.0
242.083752 1228.0
243.070902 396.0
244.070782 1845.0
245.072712 519.0
246.069022 90.0
246.079782 226.0
246.115122 202.0
247.088901 109.0
249.063861 73.0
250.074441 81.0
252.067501 99.0
252.106391 192.0
253.088811 94.0
253.123111 99.0
254.08408 1541.0
255.0954 1023.0
256.10088 2931.0
257.0942 203.0
257.12405 109.0
258.11776 487.0
259.10393 148.0
260.095149 119.0
260.131489 106.0
261.075609 145.0
261.093009 299.0
262.075339 4415.0
263.076989 655.0
264.082139 125.0
264.102839 146.0
265.097189 101.0
266.090199 206.0
267.088278 151.0
268.097858 3288.0
269.098068 535.0
269.114128 552.0
270.111438 630.0
271.131518 185.0
272.121238 225.0
272.129318 217.0
274.060627 145.0
274.075217 251.0
276.034597 76.0
276.107837 96.0
280.103747 116.0
281.121176 110.0
282.117416 615.0
283.082446 163.0
283.095626 348.0
283.146746 124.0
284.108566 372.0
284.130026 458.0
285.120016 117.0
286.091816 224.0
286.144826 199.0
287.080216 85.0
288.105245 179.0
289.058795 483.0
289.075455 545.0
290.070635 5072.0
291.077595 138.0
292.081255 241.0
294.112235 177.0
295.090834 276.0
296.128344 714.0
297.108594 385.0
298.124284 193.0
298.142904 388.0
300.086194 273.0
300.120134 357.0
300.159164 104.0
301.105244 240.0
302.086863 335.0
302.098803 185.0
304.109573 114.0
306.092753 251.0
307.096233 8438.0
308.118513 196.0
309.099442 130.0
309.130442 248.0
310.131942 634.0
310.145762 406.0
312.125992 197.0
313.090742 266.0
313.109812 125.0
314.107312 619.0
315.116861 270.0
315.156841 82.0
316.091441 236.0
316.126261 204.0
318.095781 113.0
319.095961 174.0
320.141521 176.0
321.148391 72.0
322.14631 186.0
322.16389 210.0
323.20039 107.0
324.14503 255.0
324.15739 436.0
325.17588 149.0
326.1641 89.0
327.13966 114.0
328.07585 173.0
328.0865 849.0
329.095139 194.0
330.085739 71.0
330.117779 169.0
331.122389 72.0
333.139809 58.0
335.168709 153.0
336.161208 380.0
337.182168 84.0
338.174048 814.0
339.163798 84.0
339.198068 201.0
341.086068 577.0
342.101818 604.0
342.130808 859.0
342.148908 378.0
343.131727 107.0
344.139597 88.0
345.117987 83.0
346.112377 190.0
346.119667 186.0
348.180337 70.0
349.197397 262.0
350.168286 198.0
350.188456 175.0
351.195626 908.0
352.195016 919.0
353.205056 84.0
354.205456 108.0
355.114966 121.0
355.151896 156.0
356.119946 1673.0
357.191105 84.0
358.132275 180.0
358.184145 106.0
359.115485 215.0
359.132175 294.0
364.197634 164.0
366.155764 90.0
366.206364 408.0
366.217624 649.0
367.215644 393.0
368.222514 11288.0
369.211954 1657.0
370.134893 309.0
370.200843 310.0
371.181613 100.0
371.219363 173.0
378.207162 83.0
378.262422 88.0
379.204202 92.0
380.221652 929.0
382.185952 155.0
383.197792 65.0
384.207161 1380.0
384.927551 98.0
385.233221 1542.0
386.235601 17066.0
387.185341 194.0
387.258581 141.0
390.196291 185.0
390.209841 485.0
392.22495 593.0
394.22388 170.0
394.23358 147.0
395.16779 51.0
396.14206 74.0
396.2103 63.0
397.15854 86.0
397.26593 69.0
398.182189 132.0
398.213469 115.0
398.240849 76.0
399.608519 90.0
404.192199 176.0
404.219789 347.0
405.226838 604.0
406.245028 19668.0
407.226958 394.0
407.250668 798.0
408.188258 124.0
408.225888 225.0
409.263668 181.0
410.169858 124.0
410.237308 128.0
412.215907 289.0
412.257687 507.0
415.190737 54.0
416.223357 62.0
418.206327 91.0
420.224086 356.0
422.210506 129.0
422.230646 254.0
423.233676 189.0
424.239926 1832.0
424.256066 8078.0
426.223665 310.0
426.235805 951.0
429.183565 115.0
429.205895 155.0
432.231104 67.0
433.221494 173.0
434.237514 7554.0
435.234244 404.0
435.250604 404.0
435.264914 257.0
436.217834 379.0
438.210904 98.0
438.233454 186.0
440.208493 98.0
440.235193 233.0
441.240873 113.0
441.282043 102.0
442.249753 96.0
443.228843 63.0
450.237542 361.0
450.738642 92.0
451.262902 3737.0
452.245662 17725.0
453.250361 532.0
454.218591 342.0
454.224851 440.0
456.229271 116.0
461.20812 57.0
462.23534 158.0
464.21093 138.0
468.257349 177.0
469.269069 2468.0
470.264879 14753.0
471.244709 695.0
471.265979 1687.0
478.624958 199.0
479.253138 2393.0
480.246567 21196.0
481.241047 197.0
482.217187 86.0
486.276387 69.0
490.923296 94.0
495.267385 111.0
495.620625 81.0
496.262015 1559.0
497.266405 25521.0
498.247725 18691.0
502.883224 96.0
506.485824 67.0
513.523143 85.0
513.578633 102.0
514.273763 1431.0
515.258372 7032.0
515.276142 27421.0

