>compound 
>formula C15H10O5
>parentmass 271.0601
>ionization [M + H]+
>instrumentation Unknown (LCMS)
>source file:/Users/fanzhoukong/Documents/GitHub/Libgen/data/NIST_MONA/0_unknown_/spectrum.ms
>quality UNKNOWN

>ms2peaks
46.0414 0.10675
50.0474 0.112224
50.0727 0.10675
56.9972 0.177916
63.0105 0.166968
63.9787 0.134122
69.0328 3.593913
78.0459 0.180654
81.0328 2.890458
84.0 0.10675
85.0277 0.23266
89.038 4.004489
90.0432 0.322987
91.0537 100.0
92.9965 0.136859
94.0015 0.109487
94.0632 0.131384
95.0124 2.104889
95.0499 0.498166
96.0199 0.128647
97.0155 0.109487
97.0281 1.680626
99.0111 0.123173
102.0529 0.134122
103.0536 1.590299
104.0572 0.202551
105.0334 1.286473
105.0431 0.131384
106.0403 0.175179
107.0487 5.003558
108.0207 0.364044
108.0523 0.416051
109.0282 1.527344
109.0657 0.161493
110.033 0.175179
111.0077 1.248152
111.0438 0.265506
111.0547 0.117699
113.0143 0.128647
115.0545 2.857612
116.057 0.290141
117.0051 0.10675
117.0327 0.205288
117.07 1.127717
118.0406 0.350359
119.0489 6.719768
120.052 0.514589
120.0694 0.19434
121.0284 3.947008
122.0315 0.183391
122.0438 0.123173
123.0071 0.177916
125.0235 0.199814
127.0036 0.136859
127.0387 0.128647
127.0536 0.153282
128.063 0.440685
129.0332 0.142333
129.0409 0.136859
129.069 0.689768
130.0159 0.175179
130.0745 0.101276
131.0485 1.847594
131.0852 0.593967
133.0282 0.473532
133.0613 0.136859
135.0444 0.741775
135.0688 0.142333
137.0239 0.574807
137.0466 0.183391
137.9833 0.109487
139.0349 0.112224
139.055 0.10675
140.0562 0.164231
141.0697 3.95522
142.0734 0.424262
144.0562 0.517326
144.0805 0.153282
145.0276 1.921498
145.0446 0.19434
145.0641 1.365851
146.0313 0.333936
147.044 1.042864
147.0807 0.632288
149.0224 5.531833
150.0413 0.164231
151.0428 0.131384
151.053 0.487217
152.0423 0.114961
152.0609 0.958012
153.0174 35.457382
153.9925 0.104013
154.0209 1.721684
154.9966 0.101276
155.0226 0.265506
155.0483 1.045601
156.0535 0.240872
156.0693 0.10675
156.989 0.136859
157.0649 0.818416
159.0438 2.734439
159.0804 1.291947
160.9814 0.156019
162.0789 0.134122
163.0398 0.632288
165.0175 2.537362
166.0223 0.156019
167.0432 0.12591
167.087 0.109487
168.0565 0.796518
169.0641 13.568183
170.0316 0.142333
170.0445 0.117699
170.0679 1.286473
171.0299 0.177916
171.0442 0.342147
171.0776 0.186128
172.0021 0.10675
172.0529 0.268243
173.0591 1.549242
174.0661 0.240872
175.0752 0.91148
177.0541 0.150545
178.0265 0.443423
178.9864 0.210763
179.0478 0.153282
181.0642 0.544698
182.0697 0.12591
183.0298 0.33941
183.0429 1.727158
184.039 0.156019
184.0489 0.342147
185.0335 0.112224
185.0601 0.947063
186.0644 0.158756
187.0384 1.557453
187.0741 2.761811
188.0416 0.156019
191.0344 0.853999
194.0331 0.117699
196.0101 0.101276
196.0492 0.120436
197.059 17.586358
198.065 1.864017
199.0379 0.109487
200.0461 2.430613
201.0288 0.136859
201.0527 1.549242
202.0593 0.188865
203.0325 0.235397
204.0383 0.158756
207.0446 0.150545
209.0579 0.292878
211.0376 0.774621
211.0731 0.139596
213.0542 1.803799
214.0608 0.372256
215.0697 28.031423
216.0419 0.295615
217.0519 0.12591
218.0678 0.147808
219.0658 0.298352
221.082 0.117699
225.0541 2.611266
226.0014 0.117699
226.0615 1.108556
227.072 0.476269
228.0405 0.604916
229.0477 1.029178
235.039 0.123173
239.0704 0.101276
241.048 0.46532
242.0571 1.357639
243.0642 14.824547
247.0613 0.142333
252.0429 0.175179
253.0491 12.451415
254.0525 1.48355
269.042 0.301089
270.0499 0.136859
271.0592 20.033394
273.064 0.169705

