>compound 
>formula C42H66O16
>parentmass 844.4689070403
>ionization [M + H3N + H]+
>instrumentation Unknown (LCMS)
>source file:/Users/fanzhoukong/Documents/GitHub/Libgen/data/EAD_PFP/0_unknown_/spectrum.ms
>quality UNKNOWN

>ms2peaks
126.043683 26.0
127.054224 170.0
128.062155 851.0
129.064066 190.0
130.063147 59.0
130.067617 134.0
131.085168 378.0
132.08641 53.0
133.103891 1011.0
135.114153 52.0
139.057347 113.0
141.067679 519.0
142.07241 62.0
142.0759 178.0
143.081881 186.0
144.078472 45.0
144.094932 66.0
145.102104 351.0
146.073715 55.0
146.111595 27.0
147.087776 95.0
147.117476 76.0
150.83841 11.0
161.132691 36.0
163.057143 73.0
163.149713 65.0
164.064434 35.0
165.068525 411.0
166.070636 81.0
167.079597 60.0
168.073798 54.0
169.098989 208.0
170.09662 87.0
171.117711 172.0
172.122563 87.0
173.132964 492.0
174.126905 37.0
175.141826 251.0
175.148316 591.0
176.161027 52.0
177.160998 269.0
178.076199 124.0
179.08553 132.0
180.083241 132.0
181.086362 37.0
181.100862 69.0
182.101523 42.0
183.034684 42.0
183.104934 115.0
184.108445 62.0
185.130716 218.0
186.138418 91.0
187.150219 567.0
188.15533 40.0
189.133491 173.0
189.145621 231.0
190.169582 410.0
191.001313 168.0
191.146203 123.0
191.178713 91.0
192.984435 58.0
193.098765 72.0
193.981886 21.0
194.103336 96.0
194.973697 60.0
195.114607 98.0
197.131309 123.0
199.136242 56.0
199.145922 317.0
200.150823 45.0
201.163824 537.0
202.077705 100.0
203.180756 927.0
204.090797 36.0
204.153777 50.0
205.162808 309.0
206.106829 23.0
207.03184 202.0
208.032421 41.0
208.110141 32.0
209.130312 28.0
210.150133 18.0
210.998794 23.0
211.146804 60.0
212.158685 30.0
213.162967 324.0
214.169638 67.0
215.180089 279.0
217.163421 63.0
218.173672 41.0
219.154373 113.0
219.173233 109.0
221.152955 185.0
222.127186 43.0
223.148907 60.0
223.165007 169.0
225.046539 38.0
225.168539 29.0
227.181002 124.0
229.183164 62.0
229.193534 119.0
231.173246 47.0
233.152458 95.0
234.158739 30.0
235.1747 81.0
236.177791 56.0
237.175472 57.0
238.155613 27.0
239.155944 68.0
239.174124 68.0
241.193337 98.0
242.985799 48.0
243.208809 45.0
246.114022 24.0
247.167893 134.0
248.174604 157.0
249.170985 134.0
250.981947 69.0
251.179097 84.0
253.18901 62.0
255.213212 55.0
257.195194 38.0
259.165906 31.0
261.183728 145.0
263.16167 26.0
265.016312 95.0
267.000694 25.0
267.184805 36.0
268.984456 39.0
269.220697 50.0
271.241719 24.0
273.187711 27.0
275.195893 38.0
277.195125 30.0
281.057619 78.0
281.22846 49.0
283.241212 56.0
285.183384 22.0
288.207167 41.0
291.2068 25.0
295.242815 58.0
300.17156 26.0
301.214591 42.0
309.25675 35.0
310.261901 29.0
311.272162 22.0
317.170998 51.0
319.23829 16.0
321.080492 60.0
324.283196 24.0
327.232379 103.0
329.243251 35.0
333.260185 41.0
341.249544 60.0
349.295063 43.0
351.297225 36.0
353.251697 27.0
355.263299 36.0
361.291405 26.0
364.308599 18.0
365.216 48.0
366.212651 98.0
367.261352 46.0
375.308121 55.0
376.316512 76.0
377.320573 399.0
379.332715 52.0
381.195237 30.0
387.301693 27.0
389.322816 263.0
390.328607 50.0
391.302698 30.0
393.30899 88.0
394.319891 52.0
395.314552 192.0
395.330142 135.0
397.186594 22.0
398.196605 34.0
405.314343 151.0
406.322764 54.0
407.334425 967.0
408.333486 100.0
409.329817 208.0
409.353597 61.0
411.330069 67.0
417.215996 26.0
421.31198 55.0
422.303861 62.0
422.317961 82.0
423.323122 663.0
424.335543 54.0
425.341064 645.0
426.351845 191.0
427.347636 82.0
434.317914 98.0
435.316815 659.0
437.338517 71.0
439.327959 157.0
440.33056 171.0
441.338401 546.0
443.349294 71.0
444.362635 27.0
447.328828 51.0
451.199222 49.0
451.321992 52.0
452.327733 138.0
453.336704 2951.0
454.325905 40.0
467.311119 25.0
469.318721 56.0
470.333702 378.0
471.343404 2466.0
471.354024 5365.0
481.332184 34.0
487.347181 38.0
488.353312 81.0
489.360483 1609.0
498.336113 53.0
499.338184 136.0
512.350408 12.0
517.358353 22.0
528.345425 25.0
530.364897 48.0
531.367028 55.0
563.346922 12.0
565.350644 54.0
567.329897 31.0
583.371424 43.0
585.353476 12.0
597.383699 52.0
600.358742 50.0
601.372113 333.0
611.358814 224.0
615.386288 431.0
618.378961 188.0
619.385492 71.0
620.400084 145.0
629.370123 686.0
631.308175 63.0
632.384286 47.0
633.404557 2693.0
647.363672 32.0
647.378632 657.0
651.412817 103.0
663.37853 25.0
664.370471 95.0
665.385912 2765.0
665.403612 3109.0
682.38831 51.0
682.42158 124.0
693.390032 24.0
703.601163 12.0
710.41001 52.0
791.423887 155.0
809.435806 36.0
827.453106 266.0
843.462403 57.0
844.475524 3465.0

