>compound 
>formula C22H30O14
>parentmass 541.1527766408801
>ionization [M + Na]+
>instrumentation Unknown (LCMS)
>source file:/Users/fanzhoukong/Documents/GitHub/Libgen/data/EAD_PFP/0_unknown_/spectrum.ms
>quality UNKNOWN

>ms2peaks
50.014954 235.0
51.022475 656.0
52.027305 147.0
53.040516 120.0
54.033246 29.0
55.053357 262.0
56.052197 40.0
57.031898 23.0
57.068888 15.0
60.98507 36.0
62.01451 48.0
63.020671 222.0
64.027871 29.0
65.039102 969.0
66.043932 96.0
67.053253 319.0
68.043563 16.0
68.994734 157.0
70.045954 21.0
74.015586 96.0
75.015977 70.0
76.024777 49.0
76.027337 82.0
77.039458 1521.0
78.043568 220.0
79.052419 257.0
80.053739 134.0
81.07018 128.0
82.06374 34.0
83.083881 30.0
85.028322 97.0
86.010342 21.0
87.020843 14.0
88.028973 21.0
89.038284 442.0
90.040334 51.0
91.056405 2195.0
92.055625 207.0
93.064066 80.0
93.068796 47.0
94.005806 32.0
94.062806 67.0
95.054457 27.0
95.082157 69.0
96.080117 41.0
97.026338 43.0
99.002869 18.0
99.014569 23.0
99.994689 19.0
100.112279 28.0
101.03675 17.0
102.04461 97.0
103.054501 171.0
104.051371 74.0
105.068102 161.0
106.067582 40.0
107.010983 51.0
107.056583 39.0
108.081753 32.0
109.044274 17.0
110.095334 15.0
112.007195 36.0
112.013415 173.0
113.002626 64.0
113.019286 33.0
114.050576 21.0
115.051867 548.0
116.057537 83.0
117.033668 39.0
117.042148 45.0
117.059108 96.0
117.068638 133.0
118.062848 50.0
119.075149 38.0
122.09468 24.0
126.033582 23.0
127.054022 237.0
128.063063 237.0
129.067193 108.0
130.066294 92.0
130.990764 19.0
131.056924 37.0
132.020915 31.0
132.074955 33.0
133.016695 13.0
133.079975 55.0
135.076356 33.0
137.061247 23.0
139.050208 35.0
139.053678 60.0
140.045429 42.0
141.067459 141.0
141.92627 33.0
142.06401 36.0
142.07337 31.0
143.06878 34.0
143.07228 30.0
144.078251 45.0
145.033451 57.0
145.088921 42.0
145.968142 35.0
146.097192 14.0
147.043602 28.0
148.064593 26.0
150.042764 20.0
151.046394 27.0
152.060635 121.0
153.067345 64.0
154.066446 65.0
155.054146 38.0
155.078546 55.0
156.070707 18.0
156.084177 24.0
157.056227 20.0
158.094078 32.0
161.098879 42.0
163.00062 14.0
163.05566 53.0
164.060421 46.0
165.068301 169.0
166.074192 32.0
167.070482 65.0
168.073563 72.0
168.086263 21.0
169.043973 60.0
170.084884 34.0
170.097674 21.0
171.026504 35.0
172.049075 100.0
172.112045 17.0
175.011966 24.0
175.145486 26.0
176.059367 37.0
177.055147 334.0
178.069418 20.0
178.075968 79.0
179.064288 44.0
179.082668 64.0
180.077739 45.0
180.086919 32.0
181.054469 26.0
181.082159 32.0
181.092709 58.0
182.09863 41.0
182.18853 15.0
183.02781 31.0
183.08613 23.0
185.041161 1103.0
186.048622 222.0
188.059673 13.0
189.067223 80.0
190.073424 40.0
191.002404 40.0
191.052484 34.0
191.086344 25.0
192.087035 28.0
192.981445 45.0
194.059406 114.0
194.961116 13.0
195.069196 26.0
195.095186 26.0
196.111787 16.0
198.128098 22.0
199.035068 34.0
199.040608 113.0
201.038529 38.0
202.07048 28.0
202.07744 59.0
202.09276 33.0
203.05342 873.0
204.079321 26.0
204.997001 15.0
205.090981 30.0
207.031572 99.0
208.125403 22.0
209.103113 15.0
210.121434 14.0
211.160754 19.0
215.080666 27.0
216.038557 224.0
217.050537 178.0
218.056198 53.0
219.094628 43.0
219.104778 71.0
220.093379 17.0
220.103539 70.0
221.081299 25.0
221.132279 21.0
222.1298 15.0
225.038891 16.0
226.082012 16.0
227.081792 16.0
228.071933 23.0
228.089673 24.0
229.073123 14.0
230.098784 21.0
231.044844 33.0
234.122456 13.0
237.092197 19.0
243.06796 32.0
244.06937 27.0
245.066701 30.0
249.074813 14.0
250.994044 16.0
251.102684 16.0
252.086284 16.0
252.965835 16.0
253.184015 14.0
255.070476 34.0
257.056627 15.0
259.056748 56.0
261.058309 16.0
265.017571 35.0
266.023211 18.0
267.003562 32.0
269.062853 20.0
272.066424 27.0
273.074025 110.0
274.081845 53.0
275.073666 29.0
279.184868 13.0
281.050689 79.0
282.048459 25.0
283.05456 14.0
287.088652 27.0
288.090422 20.0
289.072263 68.0
291.079404 21.0
299.065618 24.0
301.067999 34.0
303.08561 23.0
305.094551 25.0
309.094433 13.0
315.073566 16.0
315.087446 23.0
317.076397 78.0
317.093857 61.0
317.107807 13.0
319.080368 123.0
321.090649 16.0
324.990591 12.0
331.083364 57.0
332.082294 29.0
333.080985 85.0
335.084586 13.0
335.093556 27.0
343.053889 20.0
343.081109 49.0
344.08889 10.0
345.09817 86.0
346.081571 12.0
347.088281 37.0
347.093751 196.0
349.089602 72.0
359.067417 19.0
359.078557 28.0
360.081668 162.0
361.091768 1362.0
362.093939 21.0
363.071389 57.0
363.084479 113.0
364.08195 106.0
365.10325 59.0
376.078566 23.0
377.086106 824.0
378.096907 874.0
379.105237 7561.0
380.768388 15.0
391.172413 18.0
395.111535 16.0
407.128351 22.0
409.182672 32.0
421.118448 26.0
433.113684 36.0
436.089216 23.0
437.092176 27.0
437.108566 130.0
449.097372 16.0
451.121663 885.0
460.125577 26.0
465.13614 20.0
466.09369 24.0
467.107301 14.0
481.136048 18.0
481.181158 14.0
491.127633 19.0
493.137854 24.0
495.149975 15.0
496.159775 13.0
500.932478 36.0
509.130782 137.0
510.117082 28.0
511.146443 55.0
521.680508 13.0
523.144859 39.0
525.04666 28.0
525.11172 30.0
525.12521 55.0
526.09994 68.0
526.12912 316.0
538.121556 17.0
539.142367 428.0
539.394927 35.0
540.145967 2765.0
541.152748 7064.0

