>compound 
>formula C26H34O7
>parentmass 457.22317696604
>ionization [M - H]-
>instrumentation Unknown (LCMS)
>source file:/Users/fanzhoukong/Documents/Fiehnlab/library_generator/data/UVPD/0_unknown_/spectrum.ms
>quality UNKNOWN

>ms2peaks
57.033459 60756.0
59.012763 484507.0
67.017638 196517.0
68.997122 41384.0
69.033442 104269.0
71.012906 179923.0
71.048896 1515089.0
72.9923 49155.0
73.02847 35306.0
79.017512 53650.0
79.053722 33100.0
81.033266 62701.0
83.04911 133434.0
93.069729 33155.0
95.013083 255841.0
95.048893 178955.0
97.028197 49050.0
97.065147 1582244.0
105.069443 45108.0
107.048757 94941.0
108.020869 39480.0
109.028261 84960.0
109.064941 118469.0
111.007934 80789.0
111.044355 58372.0
111.080795 112051.0
113.023948 52715.0
119.0494 88967.0
119.08566 91570.0
121.028894 73112.0
121.064644 303292.0
123.043538 91046.0
123.080168 69247.0
131.049904 38468.0
132.057496 114807.0
133.065218 130657.0
135.044771 53066.0
135.080152 184079.0
137.060185 90909.0
137.094655 58697.0
138.030017 33919.0
145.063911 65237.0
147.080515 439269.0
149.059309 64953.0
149.096439 72536.0
151.002593 151245.0
151.110233 50173.0
157.063905 74970.0
157.101955 45601.0
159.080159 224847.0
160.05178 56718.0
161.058642 59596.0
161.095952 52486.0
163.074276 95540.0
163.112296 34941.0
171.079642 40294.0
173.059376 35798.0
173.096036 80289.0
174.065858 38662.0
175.07618 320378.0
175.111 46654.0
177.090474 58144.0
185.096639 77412.0
187.075163 42572.0
189.127437 101487.0
191.071831 88302.0
195.080889 36624.0
197.094283 30320.0
199.111857 126552.0
201.090141 35995.0
201.126891 83329.0
203.070065 239878.0
204.042857 30719.0
209.097666 42417.0
211.07219 40826.0
211.11171 42891.0
213.091524 50404.0
215.106068 34036.0
217.121852 165658.0
219.065136 146016.0
223.113054 34124.0
227.105102 107001.0
227.145522 34304.0
229.158156 60818.0
235.111377 51669.0
236.120899 64930.0
243.173613 34075.0
245.118987 54532.0
245.189057 31563.0
247.171231 222343.0
249.126875 37884.0
251.144289 132918.0
253.160343 38548.0
255.139507 31858.0
259.096404 128704.0
261.186528 33252.0
266.127148 52095.0
269.121204 37087.0
269.154374 114705.0
271.132588 37490.0
271.170958 126220.0
273.186032 76028.0
275.164826 90550.0
279.137433 69581.0
281.115587 106547.0
281.151017 45745.0
287.130849 33841.0
289.178893 179714.0
295.134775 180267.0
297.109699 51677.0
297.148209 68087.0
299.165603 57883.0
309.112072 173246.0
311.128976 124767.0
313.14192 862937.0
315.192434 98324.0
317.172238 106134.0
323.12497 1457900.0
325.180094 100373.0
328.165629 41171.0
341.136575 126097.0
343.188669 141434.0
351.195985 37493.0
353.175688 253001.0
367.189326 106277.0
371.179844 53730.0
377.170705 45815.0
379.191979 46963.0
383.186947 61579.0
385.200011 130677.0
395.186641 249624.0
409.168198 143889.0
413.196256 42382.0
427.213133 41989.0
428.210265 33954.0
429.230007 80583.0
439.205497 43973.0
457.222622 3247334.0

