>compound 
>formula C18H17ClO6
>parentmass 365.07864694733007
>ionization [M + H]+
>instrumentation Unknown (LCMS)
>source file:/Users/fanzhoukong/Documents/GitHub/Libgen/data/EAD_PFP/0_unknown_/spectrum.ms
>quality UNKNOWN

>ms2peaks
126.045142 47.0
127.051272 304.0
128.060303 305.0
129.069974 141.0
130.067974 114.0
131.051885 367.0
132.084516 48.0
133.064696 74.0
134.098417 44.0
137.036579 34.0
138.04529 42.0
139.05309 422.0
140.066851 55.0
141.068032 400.0
142.072762 80.0
143.075203 48.0
143.085743 83.0
144.075294 58.0
145.003354 47.0
145.065884 53.0
147.044166 54.0
148.054436 49.0
161.099465 40.0
163.037486 122.0
164.052227 85.0
165.067618 712.0
166.072248 135.0
167.055869 143.0
167.083719 175.0
168.05509 161.0
168.07032 165.0
169.00379 314.0
171.030922 82.0
171.059112 56.0
172.075362 34.0
173.058533 167.0
174.070354 107.0
175.033274 55.0
175.039764 36.0
176.059955 93.0
176.062565 123.0
177.063556 60.0
178.077856 330.0
179.081927 222.0
180.080948 65.0
181.002338 121.0
181.055058 84.0
182.190429 85.0
182.98201 62.0
183.03502 211.0
183.99051 36.0
184.04899 108.0
185.009771 213.0
185.059091 268.0
186.069262 93.0
187.044682 124.0
187.068792 112.0
188.083103 90.0
189.067814 274.0
190.068614 126.0
191.013815 188.0
191.036845 116.0
192.042826 192.0
192.977966 103.0
194.072277 106.0
195.020538 289.0
196.050658 111.0
196.117869 31.0
197.002359 800.0
198.06389 147.0
198.99281 168.0
199.01907 149.0
200.050001 189.0
200.991902 747.0
202.066893 213.0
203.144763 207.0
204.072924 63.0
204.145714 38.0
205.160325 43.0
206.015735 34.0
207.027946 321.0
208.029917 64.0
208.114687 39.0
209.022967 169.0
210.005618 117.0
210.980618 545.0
212.059139 36.0
212.146169 46.0
213.05175 430.0
214.061011 302.0
215.075531 106.0
216.076592 72.0
217.071343 155.0
218.014863 41.0
219.027084 55.0
219.076384 131.0
221.019275 95.0
221.057125 85.0
222.006336 37.0
223.016087 575.0
223.065817 34.0
224.050107 48.0
224.996888 614.0
226.029609 114.0
226.060539 54.0
227.013019 1346.0
228.03852 74.0
228.989231 104.0
230.103861 45.0
231.020152 263.0
232.024803 46.0
233.030133 104.0
233.051083 105.0
233.085473 75.0
234.006174 51.0
235.021795 149.0
237.032476 262.0
237.068676 85.0
238.001737 49.0
238.157417 35.0
239.010827 694.0
240.079758 172.0
241.041519 78.0
241.050639 82.0
242.058559 155.0
243.17856 34.0
245.030521 57.0
246.006742 37.0
247.018813 167.0
247.048063 118.0
247.071173 79.0
248.069983 65.0
249.033694 646.0
250.044195 61.0
250.103065 87.0
251.016395 752.0
252.044916 43.0
252.079136 76.0
253.019427 74.0
253.027227 124.0
255.006968 233.0
257.036839 56.0
259.014811 31.0
259.022711 207.0
260.024821 154.0
261.032052 626.0
263.011003 480.0
264.995865 240.0
265.005445 486.0
265.034135 155.0
266.059005 65.0
267.023396 114.0
268.031237 28.0
269.036177 37.0
271.014549 44.0
273.06169 106.0
275.046681 257.0
276.077692 62.0
277.024193 1073.0
279.041494 490.0
281.051355 94.0
283.017297 56.0
283.058497 94.0
285.026518 102.0
287.03784 185.0
289.027921 253.0
291.004852 43.0
292.071993 45.0
293.047184 77.0
293.085754 101.0
294.087834 218.0
295.034395 166.0
296.026346 30.0
299.093358 71.0
301.060159 412.0
303.04533 710.0
304.050611 30.0
305.026742 393.0
311.046066 140.0
319.065271 147.0
319.077531 178.0
321.057942 155.0
323.028644 44.0
329.056878 636.0
347.07069 656.0
365.165702 282.0
365.188162 504.0

