>compound 
>formula C24H28O13
>parentmass 547.14221195685
>ionization [M + Na]+
>instrumentation Unknown (LCMS)
>source file:/Users/fanzhoukong/Documents/GitHub/Libgen/data/EAD_PFP/0_unknown_/spectrum.ms
>quality UNKNOWN

>ms2peaks
126.053263 54.0
127.052813 46.0
128.061844 248.0
129.061504 37.0
130.068424 63.0
131.063534 40.0
131.085964 45.0
132.082715 45.0
134.056905 35.0
135.009085 25.0
137.018696 38.0
139.055866 54.0
140.048786 18.0
141.062686 122.0
141.071996 94.0
142.072067 71.0
143.068657 63.0
144.078127 74.0
145.085257 22.0
147.629708 11.0
163.045511 27.0
163.053021 77.0
164.060291 59.0
165.069402 328.0
166.076582 64.0
167.077932 142.0
168.072132 137.0
168.086112 43.0
169.062932 52.0
170.065573 25.0
171.101943 24.0
172.078483 28.0
172.113183 49.0
173.102913 32.0
175.032544 21.0
175.111614 84.0
177.062814 25.0
178.071884 111.0
179.086434 125.0
180.078885 93.0
181.097825 50.0
182.191025 105.0
183.100555 64.0
185.039666 36.0
185.074326 46.0
187.049286 18.0
189.058977 31.0
189.069757 145.0
190.074617 73.0
190.084057 32.0
190.998187 99.0
192.004057 23.0
192.986727 87.0
193.080637 24.0
194.083788 37.0
194.096088 28.0
194.977368 31.0
195.108708 30.0
196.110248 29.0
198.129298 38.0
199.138569 39.0
200.144839 47.0
201.075849 58.0
202.077259 72.0
203.07837 60.0
203.14398 71.0
204.08054 51.0
205.07817 45.0
205.10483 42.0
206.09792 42.0
207.03139 143.0
208.034781 59.0
209.032111 44.0
209.117101 27.0
210.128361 19.0
211.992721 55.0
213.149632 26.0
215.089102 84.0
216.081572 18.0
217.041672 63.0
218.103753 20.0
219.059633 25.0
220.116433 18.0
221.111683 11.0
222.128144 15.0
224.140214 20.0
226.050874 20.0
227.086025 61.0
229.046245 302.0
230.104525 39.0
233.030796 20.0
233.041286 86.0
235.060016 33.0
235.171176 24.0
237.137227 35.0
239.085737 34.0
242.097358 24.0
244.988278 12.0
247.059539 1721.0
248.066039 33.0
250.97364 18.0
252.17317 22.0
253.1791 21.0
257.040691 40.0
259.056531 168.0
263.053052 26.0
265.018933 85.0
267.000133 47.0
268.977463 28.0
269.085093 35.0
274.042675 38.0
275.052295 285.0
277.078725 31.0
281.048816 133.0
282.049856 44.0
283.060896 27.0
291.042378 61.0
291.050738 46.0
292.057698 594.0
293.064719 82.0
295.077229 42.0
299.10769 12.0
301.08983 25.0
315.069783 20.0
317.074364 20.0
323.080505 19.0
325.101555 12.0
327.123596 26.0
334.059327 12.0
335.073517 80.0
337.079528 79.0
337.092098 66.0
343.151579 12.0
351.068821 54.0
353.085241 31.0
363.071053 86.0
365.101014 12.0
377.087656 37.0
381.033787 12.0
383.153538 35.0
392.057989 12.0
395.09755 32.0
401.080391 25.0
406.118542 12.0
407.094343 80.0
409.103013 39.0
419.098125 150.0
421.114026 98.0
423.273816 12.0
425.111866 43.0
427.097647 33.0
435.649069 20.0
437.093829 282.0
437.104059 3113.0
439.152489 12.0
443.28231 32.0
452.255912 12.0
459.058254 11.0
483.278139 12.0
487.116909 33.0
487.125549 81.0
499.122592 38.0
515.118105 55.0
517.141116 111.0
528.062818 12.0
529.137158 102.0
545.126962 355.0
546.131542 239.0
546.152112 259.0
546.681102 38.0
547.153032 10780.0

