>compound 
>formula C20H20O6
>parentmass 357.13326936202003
>ionization [M + H]+
>instrumentation Unknown (LCMS)
>source file:/Users/fanzhoukong/Documents/GitHub/Libgen/data/EAD_PFP/0_unknown_/spectrum.ms
>quality UNKNOWN

>ms2peaks
50.014515 45.0
51.022002 98.0
53.003628 3701.0
55.018653 1468.0
56.05823 38.0
57.035008 122.0
57.070528 20.0
59.013883 2079.0
59.982581 16.0
62.012286 12.0
63.024633 59.0
65.039949 1459.0
66.046366 12.0
67.056494 55.0
68.997189 64.0
69.037879 23.0
69.530378 21.0
75.024395 24.0
77.04196 584.0
78.039147 32.0
78.050397 53.0
79.055805 181.0
81.06564 39.0
81.07182 86.0
82.006818 26.0
83.016785 269.0
84.750171 37.0
84.830451 20.0
85.033581 9597.0
85.684319 26.0
85.998358 18.0
86.378507 14.0
86.784136 19.0
88.035213 21.0
89.039931 211.0
89.53608 19.0
90.047559 97.0
90.755437 28.0
91.058986 6065.0
92.022494 23.0
93.033581 84.0
94.044499 124.0
94.535338 16.0
95.027457 18.0
95.047507 74.0
95.053237 69.0
95.080936 29.0
98.018609 43.0
98.027339 111.0
99.003547 23.0
101.043312 43.0
102.05121 42.0
103.059127 269.0
104.046025 18.0
104.063015 47.0
105.056693 53.0
105.070752 118.0
107.053168 6664.0
108.054885 25.0
109.108333 19.0
112.653604 171.0
112.659844 307.0
113.029263 17101.0
113.898481 214.0
115.056669 1638.0
116.059186 164.0
117.034254 17.0
118.036821 140.0
118.045331 714.0
119.050069 5969.0
120.059067 141.0
121.030284 2067.0
123.047479 19.0
126.044032 24.0
127.03691 109.0
127.05678 48.0
127.655978 25.0
128.063597 41.0
129.062165 20.0
131.04962 59.0
133.065805 91.0
137.060606 81.0
139.058801 55.0
141.076096 147.0
142.043504 29.0
143.051681 724.0
144.059919 2253.0
145.064616 1083.0
146.036094 143.0
147.048812 7459.0
148.055529 27.0
149.027367 452.0
150.048015 232.0
151.058892 590.0
152.0647 2079.0
152.608778 33.0
153.056887 60.0
153.071427 1739.0
154.077815 126.0
154.418484 20.0
155.076532 148.0
155.087522 457.0
156.07604 21.0
157.067698 215.0
158.040315 59.0
158.074805 24.0
159.046843 728.0
160.05655 291.0
161.059508 601.0
162.023206 29.0
162.036926 59.0
162.053146 43.0
163.052313 657.0
163.907801 38.0
164.060831 717.0
165.072468 7388.0
166.073316 131.0
166.079636 1364.0
166.708935 32.0
167.073414 52.0
167.088604 1540.0
167.860652 18.0
168.062531 426.0
169.069829 506.0
170.050776 28.0
170.076336 34.0
171.046104 2474.0
172.032752 22.0
172.053302 323.0
172.072592 46.0
173.049299 59.0
173.063479 228.0
174.045587 24.0
174.068847 17.0
175.039545 47.0
175.051204 95.0
175.062874 192.0
175.074534 493.0
176.036342 49.0
176.057122 74.0
176.064922 1115.0
177.06331 151.0
177.07245 2149.0
178.055397 35.0
178.077607 680.0
179.076445 97.0
179.085615 515.0
180.080702 30.0
180.089902 39.0
181.08381 3623.0
181.10228 74.0
182.075178 385.0
182.088388 31.0
182.393887 41.0
183.081165 1319.0
184.050053 20.0
185.006841 24.0
185.0948 27.0
186.040938 19.0
187.026986 57.0
187.045746 1074.0
187.858534 20.0
188.047893 46.0
188.065363 172.0
189.071591 2937.0
189.618859 33.0
190.080478 2788.0
190.472357 33.0
191.078526 785.0
191.089376 7419.0
192.072404 32.0
192.091414 76.0
193.068841 1854.0
194.074699 4520.0
195.087276 2619.0
197.065292 2717.0
197.989139 18.0
199.045017 1823.0
200.045514 31.0
200.060754 638.0
200.401764 15.0
201.076302 4045.0
202.08189 991.0
202.10557 44.0
203.059267 32.0
203.082997 585.0
203.869725 17.0
204.079595 22.0
204.115965 21.0
205.071592 287.0
206.07304 178.0
207.052978 33.0
207.083978 1376.0
208.076195 104.0
208.091725 782.0
209.101933 5536.0
209.118933 169.0
210.07483 614.0
211.079868 2690.0
212.087296 6235.0
213.095703 576.0
215.024858 19.0
215.042108 24.0
215.086648 15.0
216.064696 29.0
217.072404 395.0
218.078111 2202.0
219.084679 8452.0
220.089226 1765.0
221.030514 21.0
221.068384 111.0
221.085864 333.0
221.094614 462.0
221.114994 41.0
222.071612 353.0
222.340301 33.0
223.081499 7093.0
224.084887 73.0
225.081704 74.0
225.096404 51.0
226.099882 17.0
226.369511 22.0
227.110019 14.0
229.046615 28.0
229.077745 827.0
230.082622 32.0
231.08076 1850.0
232.090018 51.0
233.064075 79.0
233.095495 55.0
234.070163 212.0
235.08141 2379.0
236.076788 277.0
236.084308 2082.0
236.310137 81.0
236.352307 34.0
236.627987 27.0
237.098386 13981.0
238.098003 107.0
238.208373 250.0
238.299103 34.0
238.352012 37.0
238.604652 31.0
238.987651 82.0
239.048231 37.0
239.59835 29.0
241.083636 24.0
244.562538 41.0
245.068356 25.0
246.067724 18.0
246.256764 27.0
246.282903 45.0
247.079902 9657.0
247.104541 239.0
247.85505 62.0
248.084899 710.0
248.101869 143.0
249.076467 60.0
249.096577 762.0
250.065364 793.0
250.099454 43.0
251.059342 72.0
251.071762 566.0
251.091942 89.0
253.079687 17.0
254.210804 20.0
255.101872 26.0
257.055128 17.0
260.12854 26.0
263.077203 610.0
264.047331 30.0
264.079161 631.0
265.094198 10791.0
266.098376 67.0
266.502825 27.0
274.046207 17.0
275.065584 402.0
275.075344 1792.0
276.086852 115.0
278.056637 33.0
284.958071 22.0
291.029256 27.0
291.066036 22.0
292.071344 59.0
292.098133 39.0
293.088461 7011.0
297.110391 34.0
297.89948 26.0
306.470049 22.0
307.098037 45.0
307.137527 14.0
309.078863 19.0
311.052248 22.0
311.090248 50.0
311.121368 20.0
324.104557 18.0
325.110564 3620.0
326.86337 19.0
328.162867 19.0
340.615897 32.0
341.904384 20.0
342.836052 19.0
351.89728 16.0
357.135577 23.0
357.198497 19.0

