>compound 
>formula C27H34O11
>parentmass 557.1993329110901
>ionization [M + Na]+
>instrumentation Unknown (LCMS)
>source file:/Users/fanzhoukong/Documents/GitHub/Libgen/data/EAD_PFP/0_unknown_/spectrum.ms
>quality UNKNOWN

>ms2peaks
109.019319 22.0
113.041748 22.0
115.052443 277.0
117.066018 127.0
119.089582 43.0
121.065807 116.0
123.043082 116.0
124.051359 138.0
127.056712 139.0
128.060199 174.0
129.072096 140.0
131.054011 193.0
146.070282 59.0
147.047499 114.0
149.059534 119.0
151.039479 1959.0
152.060936 39.0
152.066956 155.0
153.060364 82.0
154.069171 91.0
155.084928 74.0
156.078336 86.0
157.073673 89.0
158.078331 202.0
159.044188 197.0
161.056833 176.0
162.06793 78.0
163.075908 287.0
164.079475 522.0
165.057172 1729.0
166.08575 111.0
168.058515 72.0
169.084922 89.0
172.090364 78.0
173.056802 120.0
174.066029 141.0
175.075616 123.0
176.084204 289.0
177.094371 822.0
178.069528 138.0
179.080146 82.0
180.076533 173.0
182.060378 41.0
184.029863 80.0
185.04656 367.0
187.076295 91.0
188.083892 131.0
189.09152 236.0
190.070747 89.0
191.074195 192.0
192.074832 230.0
193.088989 81.0
194.092147 201.0
197.098019 76.0
199.070984 118.0
201.056548 164.0
202.069046 178.0
203.106413 161.0
204.084861 99.0
205.083898 254.0
206.099445 106.0
209.029368 24.0
209.032208 24.0
210.085855 62.0
213.055307 37.0
217.090807 134.0
218.073414 73.0
221.065106 53.0
226.081823 72.0
233.099575 64.0
235.093 148.0
243.064599 23.0
245.120044 65.0
248.106046 51.0
256.070825 105.0
264.126404 23.0
271.090866 71.0
273.11237 265.0
277.10947 23.0
281.05346 40.0
283.052385 67.0
285.112989 98.0
295.147563 315.0
305.116107 38.0
308.083569 435.0
309.090277 416.0
316.172718 23.0
319.12684 41.0
322.101753 112.0
325.166405 66.0
327.303819 22.0
335.110629 257.0
337.084344 254.0
341.141463 495.0
347.111087 110.0
349.105122 324.0
351.115927 59.0
351.123277 107.0
353.139842 62.0
357.125521 102.0
358.621067 24.0
361.122401 111.0
362.143268 46.0
363.103996 212.0
365.109691 155.0
365.13591 300.0
371.146785 60.0
372.159052 158.0
376.162952 24.0
377.113539 211.0
379.106024 881.0
379.117474 1455.0
380.125251 257.0
381.132449 90.0
390.129555 152.0
391.134433 269.0
393.130557 460.0
394.141205 728.0
395.139552 515.0
395.157072 385.0
404.224668 24.0
405.119356 139.0
407.154751 194.0
408.153588 124.0
409.135826 170.0
419.12927 73.0
421.165364 335.0
423.143909 401.0
437.133763 91.0
437.160413 279.0
449.160251 144.0
451.138916 121.0
483.167123 109.0
486.320374 67.0
492.872937 24.0
495.152601 85.0
495.165691 140.0
496.179849 58.0
497.173196 287.0
504.332687 115.0
509.170965 36.0
510.190522 153.0
511.14242 167.0
512.179437 122.0
513.175344 331.0
525.159203 55.0
525.165973 345.0
527.186118 1503.0
539.192736 40.0
541.166731 1225.0
542.181319 5176.0
555.184885 331.0
556.205632 132.0
557.208739 16723.0

