>compound 
>formula C23H28O11
>parentmass 503.15238271771005
>ionization [M + Na]+
>instrumentation Unknown (LCMS)
>source file:/Users/fanzhoukong/Documents/GitHub/Libgen/data/EAD_PFP/0_unknown_/spectrum.ms
>quality UNKNOWN

>ms2peaks
50.01424 276.0
51.02315 527.0
52.0287 180.0
53.03693 119.0
54.033949 31.0
55.052609 384.0
56.053639 53.0
57.068869 50.0
59.011469 13.0
60.982748 39.0
61.006468 28.0
62.012938 37.0
63.021418 221.0
64.033328 36.0
65.039068 791.0
66.045488 118.0
67.054028 400.0
68.056457 25.0
68.995517 191.0
69.071217 50.0
70.066417 30.0
73.045327 32.0
74.016397 44.0
75.021026 79.0
76.031576 193.0
77.037706 1093.0
78.044386 385.0
79.054996 420.0
80.044936 54.0
80.051066 94.0
81.069256 185.0
82.063695 57.0
83.068665 26.0
83.085625 58.0
85.009315 19.0
85.051765 31.0
87.022625 40.0
89.038234 228.0
90.044004 63.0
91.055424 1528.0
92.055574 215.0
93.065914 114.0
94.067504 56.0
95.048673 26.0
95.084013 77.0
96.056063 21.0
97.030143 67.0
98.092573 32.0
99.006713 13.0
100.111243 36.0
101.025853 24.0
102.046532 166.0
103.054442 508.0
104.052312 87.0
105.057002 40.0
105.070052 225.0
106.067522 70.0
107.009902 204.0
107.032202 53.0
108.081682 32.0
109.026821 35.0
109.094341 43.0
110.041821 16.0
110.999591 26.0
112.000911 30.0
113.003601 82.0
113.019221 57.0
114.032721 37.0
115.052851 529.0
116.05747 88.0
117.06009 47.0
117.06645 177.0
118.06703 31.0
119.08149 59.0
120.05735 41.0
120.08203 21.0
121.02425 34.0
121.09755 26.0
122.03508 24.0
122.0946 20.0
123.043579 11.0
123.115309 16.0
126.043399 64.0
127.048429 93.0
127.053949 187.0
128.060769 488.0
129.069349 148.0
130.061748 15.0
130.068458 86.0
131.050118 436.0
132.035468 61.0
132.072608 78.0
133.014338 17.0
133.064048 45.0
133.078748 31.0
133.099088 38.0
134.097768 28.0
135.079688 22.0
135.116128 16.0
136.050328 18.0
136.115468 28.0
137.026757 38.0
138.023937 38.0
138.037747 23.0
139.038567 114.0
140.054617 57.0
141.058067 171.0
141.060407 179.0
142.061597 26.0
142.073277 67.0
144.078166 54.0
145.091176 26.0
145.107686 46.0
145.970416 26.0
146.075786 21.0
147.043506 29.0
147.964396 18.0
148.087146 19.0
148.124106 12.0
149.062706 42.0
150.027065 20.0
151.047505 42.0
152.060525 157.0
153.069675 142.0
154.063915 44.0
155.040625 28.0
155.063805 55.0
155.077235 50.0
156.076725 17.0
157.056114 34.0
157.076984 38.0
158.096454 30.0
159.109324 24.0
160.111804 23.0
161.102494 41.0
162.112474 23.0
162.133684 27.0
163.040534 32.0
163.063054 43.0
164.060323 58.0
165.073213 224.0
166.075333 68.0
167.032383 44.0
167.052643 41.0
167.085563 42.0
168.059463 40.0
168.077263 76.0
169.048953 592.0
170.031113 47.0
170.052843 51.0
170.082223 26.0
171.037902 94.0
172.048972 34.0
172.100362 27.0
173.110672 24.0
175.090902 33.0
176.051442 35.0
176.152832 30.0
177.048492 87.0
177.052422 137.0
178.073211 138.0
179.085151 63.0
180.072341 52.0
180.080231 69.0
180.092061 21.0
181.047751 72.0
181.082031 38.0
182.089231 30.0
182.179151 58.0
183.029011 35.0
183.056841 16.0
183.105881 26.0
184.090791 24.0
185.0437 289.0
187.05467 40.0
187.07477 25.0
187.13104 17.0
188.06223 19.0
189.06978 38.0
190.07329 31.0
191.02529 41.0
191.0835 49.0
192.090969 24.0
192.977239 36.0
193.045269 69.0
194.057889 61.0
194.098829 32.0
195.048519 28.0
195.115589 27.0
197.056629 119.0
197.099259 25.0
198.070049 63.0
199.088818 19.0
199.145488 18.0
200.144868 36.0
201.035598 27.0
201.055058 22.0
202.080078 41.0
203.057468 107.0
203.082578 49.0
203.142628 54.0
203.181698 28.0
204.107158 36.0
204.146348 19.0
205.081007 71.0
205.088007 137.0
205.160977 23.0
207.028597 41.0
208.034807 24.0
208.092737 14.0
209.029297 30.0
209.047717 47.0
210.047457 49.0
211.052427 143.0
211.062387 90.0
212.081186 21.0
213.050996 169.0
214.048776 16.0
215.051766 28.0
215.070466 45.0
216.081606 17.0
217.070566 20.0
219.084305 25.0
219.161155 16.0
220.052515 19.0
220.083035 22.0
221.089855 45.0
221.107345 37.0
223.047485 17.0
223.113325 20.0
224.112395 17.0
225.046065 20.0
226.061224 61.0
227.057994 111.0
227.083094 57.0
228.054014 19.0
228.074714 412.0
229.087784 44.0
230.064444 28.0
231.095304 26.0
232.113554 12.0
233.122063 13.0
235.072043 32.0
237.090513 53.0
238.096173 298.0
239.055473 486.0
241.046812 24.0
241.080252 54.0
242.051662 81.0
243.064702 231.0
244.070702 13.0
245.074162 87.0
247.082661 20.0
247.099601 24.0
248.986491 20.0
251.027991 17.0
251.079221 18.0
252.065861 27.0
253.076271 294.0
254.07932 34.0
254.08869 34.0
255.06872 45.0
255.10001 29.0
257.07213 41.0
257.08153 125.0
258.0736 23.0
258.09093 105.0
263.070549 259.0
265.025319 31.0
265.065209 65.0
265.087519 46.0
266.024589 21.0
267.001758 30.0
267.067368 15.0
268.003128 14.0
268.100968 19.0
269.075488 84.0
270.116168 18.0
271.074998 26.0
271.095968 85.0
272.062978 15.0
273.075428 43.0
279.056997 24.0
279.074997 34.0
280.047927 23.0
281.063616 314.0
282.054796 29.0
282.066336 49.0
282.092636 37.0
283.093886 853.0
285.073596 44.0
286.080126 18.0
287.091726 326.0
288.105145 28.0
288.248155 17.0
293.063065 31.0
293.125135 17.0
295.089034 74.0
296.102954 29.0
297.067974 77.0
297.081464 204.0
298.078504 15.0
298.088674 23.0
299.068744 56.0
299.097554 229.0
301.055864 28.0
301.072864 39.0
301.091564 18.0
303.080243 17.0
303.206463 18.0
305.246593 17.0
309.106212 25.0
311.060682 24.0
311.074512 49.0
311.088332 36.0
312.087812 24.0
313.035172 15.0
313.090652 30.0
314.070752 24.0
314.077712 93.0
315.087201 542.0
316.093091 315.0
317.102311 16.0
317.105791 66.0
321.081591 30.0
323.19322 24.0
323.25135 22.0
324.21019 32.0
325.09275 30.0
325.11042 25.0
327.07045 137.0
327.07753 448.0
331.084849 3199.0
332.096289 35.0
333.093209 491.0
337.086738 29.0
337.108318 28.0
339.111368 299.0
341.096838 31.0
342.094458 31.0
345.094217 18.0
348.026707 13.0
353.105506 22.0
355.107486 864.0
356.106876 25.0
357.118785 16.0
359.111645 21.0
361.093295 27.0
363.117745 24.0
365.112284 30.0
365.142244 17.0
369.121494 19.0
371.100343 469.0
373.110993 186.0
374.101293 270.0
375.109963 109.0
375.128943 47.0
377.081972 18.0
381.137062 40.0
383.130562 58.0
383.149752 73.0
385.115791 15.0
387.106171 25.0
389.182831 14.0
398.129299 19.0
399.152219 106.0
400.156889 53.0
401.147099 15.0
403.200079 18.0
409.118898 90.0
409.140688 114.0
411.082858 24.0
411.086848 67.0
411.104708 37.0
413.115267 15.0
425.126036 30.0
426.140595 17.0
427.140165 1012.0
430.137815 21.0
432.112854 21.0
437.216734 15.0
439.140193 13.0
440.185723 19.0
440.872463 19.0
441.156363 297.0
443.098783 14.0
443.131773 296.0
444.126303 26.0
444.140743 180.0
445.146753 22.0
449.128102 21.0
452.916591 16.0
455.106191 30.0
455.133351 96.0
455.173061 21.0
457.156551 48.0
457.171201 36.0
457.217281 20.0
457.642601 39.0
458.152001 77.0
458.177151 56.0
459.119161 24.0
467.130149 21.0
467.310139 35.0
469.130999 116.0
469.150079 275.0
469.678579 27.0
470.130879 27.0
471.131859 201.0
473.132709 71.0
473.154039 461.0
474.277668 18.0
475.261678 23.0
475.297998 37.0
483.157577 20.0
484.135667 31.0
485.147087 1800.0
486.159597 627.0
487.127736 44.0
489.149246 18.0
494.153825 21.0
500.337995 18.0
501.149094 484.0
501.486864 119.0
501.517594 93.0
501.870834 22.0
502.145224 373.0
502.397694 25.0
502.628254 36.0
503.146714 18608.0

