>compound 
>formula C14H12O3
>parentmass 251.06786524547
>ionization [M + Na]+
>instrumentation Unknown (LCMS)
>source file:/Users/fanzhoukong/Documents/GitHub/Libgen/data/EAD_PFP/0_unknown_/spectrum.ms
>quality UNKNOWN

>ms2peaks
50.015895 180.0
51.024102 551.0
52.02964 106.0
53.038577 132.0
54.033435 21.0
55.054983 308.0
56.05236 29.0
57.035008 72.0
57.070518 117.0
57.932956 37.0
59.050753 1314.0
60.986708 72.0
62.016136 35.0
63.024633 318.0
64.027151 37.0
65.039949 1229.0
66.043176 114.0
67.051674 28.0
67.056494 263.0
68.989049 38.0
68.996369 114.0
70.068087 23.0
70.960614 20.0
71.087744 25.0
72.93736 32.0
74.013007 21.0
75.006575 32.0
75.026945 43.0
76.031542 95.0
77.03852 1670.0
78.038277 81.0
78.043467 231.0
79.055805 459.0
80.053623 133.0
81.06917 260.0
82.052948 43.0
82.072478 48.0
83.050705 57.0
83.084625 32.0
85.010091 16.0
89.040851 271.0
90.045699 51.0
91.057116 1897.0
92.035644 96.0
92.049744 139.0
92.059144 63.0
93.058151 116.0
93.067601 152.0
94.053999 78.0
94.070149 43.0
95.080936 54.0
95.084756 144.0
97.065622 25.0
98.984047 134.0
99.995355 20.0
101.039372 18.0
102.04823 150.0
103.054157 205.0
104.052015 36.0
105.068742 184.0
106.0662 102.0
107.055188 85.0
107.086608 73.0
108.079315 39.0
109.103203 100.0
111.079758 59.0
113.000103 39.0
114.029201 29.0
114.045941 16.0
115.057719 744.0
116.049686 35.0
116.060236 77.0
117.059684 86.0
117.067104 195.0
118.071941 39.0
119.065029 121.0
119.086409 82.0
120.080526 21.0
121.062614 93.0
121.078784 93.0
123.081159 75.0
125.056145 36.0
126.047322 40.0
127.05678 213.0
128.063597 809.0
129.065485 59.0
129.068835 296.0
130.069062 81.0
130.99017 59.0
131.07314 68.0
131.08549 52.0
133.082735 51.0
133.101945 42.0
135.047271 1381.0
137.096156 15.0
139.053011 119.0
140.062148 33.0
141.065616 77.0
141.073766 147.0
142.077344 54.0
143.075111 47.0
144.083429 43.0
145.076396 102.0
145.097636 77.0
145.969794 58.0
147.080892 41.0
147.96493 21.0
149.027367 50.0
149.097947 45.0
150.046805 32.0
151.043232 33.0
151.055272 109.0
152.05987 193.0
153.069007 153.0
154.071735 82.0
155.074092 54.0
155.085062 69.0
156.06257 21.0
156.07971 44.0
157.064008 467.0
158.073565 194.0
158.082185 139.0
159.088843 42.0
159.117263 51.0
160.1086 22.0
161.116698 26.0
162.059356 21.0
163.072323 50.0
163.122373 41.0
164.052041 21.0
165.072448 203.0
166.073316 74.0
167.073394 44.0
167.079724 50.0
168.058701 82.0
168.085371 65.0
169.046899 32.0
169.095319 57.0
170.091646 42.0
171.074274 32.0
171.087084 68.0
171.117844 34.0
172.126561 13.0
173.095689 109.0
173.124039 34.0
174.102447 16.0
175.030465 31.0
175.055074 51.0
176.063602 20.0
177.127189 54.0
178.076297 50.0
179.076435 39.0
179.088245 43.0
180.079392 40.0
180.9889 18.0
181.07985 28.0
181.08381 70.0
182.083098 23.0
183.077165 28.0
183.101035 26.0
184.111183 20.0
185.05879 159.0
186.067638 16.0
187.151595 70.0
188.109693 15.0
189.070231 35.0
190.069658 61.0
191.005406 35.0
191.085296 115.0
191.116446 50.0
191.146246 45.0
192.001804 47.0
192.983101 60.0
193.059311 25.0
194.088339 21.0
195.038006 20.0
195.100946 19.0
196.053094 16.0
196.090124 16.0
197.131301 21.0
199.076797 19.0
200.082924 64.0
201.072122 16.0
202.07632 38.0
203.148607 50.0
204.148145 25.0
205.065982 14.0
205.124892 35.0
205.145952 30.0
207.030388 69.0
207.041678 73.0
207.068458 33.0
209.086343 20.0
211.057088 17.0
211.075588 46.0
215.141228 70.0
215.169978 22.0
217.092594 30.0
217.131573 11.0
219.104979 31.0
219.135429 17.0
222.100802 19.0
223.104909 44.0
223.132709 30.0
225.036134 32.0
227.07458 13.0
229.083665 14.0
233.113425 29.0
233.153815 43.0
233.191215 22.0
242.985621 22.0
250.015794 25.0
251.067092 20.0
251.090392 234.0

