>compound 
>formula C8H12O3
>parentmass 179.06786524547
>ionization [M + Na]+
>instrumentation Unknown (LCMS)
>source file:/Users/fanzhoukong/Documents/GitHub/Libgen/data/EAD_PFP/0_unknown_/spectrum.ms
>quality UNKNOWN

>ms2peaks
50.01534 677.0
51.024237 1558.0
52.031915 448.0
53.038732 149.0
55.019538 130.0
55.055147 12.0
55.934505 40.0
56.051785 6.0
56.966393 42.0
57.034433 8.0
57.071433 11.0
57.93387 7.0
59.013298 150.0
59.048678 13.0
60.986123 10.0
61.007543 33.0
62.01632 83.0
63.024048 819.0
64.029695 74.0
65.041723 2213.0
65.047253 975.0
66.04656 63.0
67.055888 635.0
67.933926 6.0
68.025196 9.0
68.997393 99.0
70.957528 7.0
72.936743 73.0
73.063963 7.0
74.015761 27.0
75.015288 7.0
75.023778 28.0
76.031766 60.0
77.044773 1628.0
78.048901 1534.0
79.055168 1324.0
80.062636 291.0
81.033254 8.0
81.062353 19.0
81.070293 124.0
82.041661 8.0
83.050949 36.0
84.965194 8.0
85.027514 9.0
86.955129 5.0
88.031796 9.0
89.039264 523.0
90.046891 130.0
90.75943 9.0
91.059259 2096.0
92.027466 10.0
92.045316 25.0
92.059416 99.0
93.036694 2901.0
93.046144 767.0
94.041932 20.0
94.062831 8.0
95.048739 70.0
95.073579 31.0
95.088859 38.0
96.937584 21.0
97.064944 32.0
97.952962 11.0
98.951199 6.0
99.992707 6.0
101.920912 6.0
102.036662 10.0
102.046552 25.0
102.9272 6.0
103.054459 161.0
104.052317 11.0
104.059317 25.0
105.038924 246.0
106.044312 952.0
107.0484 770.0
108.059267 2134.0
109.066695 68.0
111.08214 9.0
113.000425 15.0
115.05489 161.0
116.060567 20.0
116.961475 5.0
117.033525 27.0
117.048365 9.0
117.057905 39.0
117.065325 14.0
118.042472 66.0
118.055242 13.0
118.063762 11.0
119.04934 1265.0
120.054038 68.0
120.637576 9.0
120.674166 13.0
121.028465 12.0
121.043555 177.0
121.052175 5276.0
121.065115 524.0
122.059863 10.0
122.073933 19.0
122.698161 4.0
123.0826 2185.0
124.053938 78.0
125.056495 8.0
126.006983 6.0
126.039983 15.0
126.049873 5.0
126.907001 15.0
127.05492 23.0
128.063948 123.0
129.061405 17.0
130.068293 22.0
130.993911 19.0
131.06118 9.0
131.07127 8.0
132.063458 9.0
133.063895 29.0
134.037483 309.0
135.046491 236.0
135.610599 15.0
136.058168 4664.0
137.059826 10.0
138.098553 7.0
139.078801 48.0
141.070646 22.0
142.074213 14.0
143.074321 10.0
144.081458 10.0
145.070886 7.0
145.967814 15.0
146.077903 9.0
147.045641 166.0
148.053509 193.0
149.061246 2340.0
149.968014 6.0
150.046004 15.0
151.076131 637.0
152.060259 48.0
153.070606 39.0
154.069704 19.0
155.059861 8.0
155.085481 14.0
156.065429 6.0
156.082559 8.0
156.093559 12.0
157.066876 5.0
157.100016 9.0
158.097374 10.0
159.090491 8.0
159.116431 6.0
161.095957 10.0
161.114626 6.0
161.134516 6.0
163.000172 5.0
163.040212 19.0
163.053982 21.0
163.512121 6.0
164.051199 5064.0
165.061547 24.0
165.071617 55.0
166.074994 8.0
167.071292 8.0
167.081402 12.0
168.078169 26.0
169.076627 5.0
170.084414 5.0
171.092642 6.0
176.06145 10.0
176.147249 6.0
177.054617 96.0
178.066275 44.0
178.078035 25.0
178.465194 7.0
178.487444 43.0
178.504454 18.0
179.076872 8088.0

