>compound 
>formula C26H32O14
>parentmass 569.18648670534
>ionization [M + H]+
>instrumentation Unknown (LCMS)
>source file:/Users/fanzhoukong/Documents/GitHub/Libgen/data/EAD_PFP/0_unknown_/spectrum.ms
>quality UNKNOWN

>ms2peaks
50.016762 71.0
51.02427 141.0
52.026977 43.0
53.036595 50.0
53.038025 149.0
55.015889 68.0
55.028249 84.0
55.056589 52.0
57.036624 90.0
60.023686 54.0
61.029684 59.0
62.017031 70.0
63.026309 274.0
65.036103 41.0
65.040843 178.0
66.043281 23.0
67.054188 24.0
68.997283 17.0
69.035533 231.0
70.04522 28.0
71.013518 63.0
73.026142 16.0
73.027822 88.0
74.01646 34.0
75.024467 107.0
76.032455 159.0
77.041162 466.0
78.047859 74.0
79.056727 73.0
81.030412 47.0
81.035702 145.0
83.050736 45.0
85.031801 505.0
87.024336 47.0
88.031553 31.0
89.039011 183.0
91.055255 291.0
93.04114 23.0
93.07232 19.0
94.930065 15.0
95.083795 13.0
97.0299 251.0
99.036655 28.0
100.031572 42.0
101.036389 65.0
102.047207 943.0
103.056104 158.0
104.053972 16.0
105.071709 58.0
106.064126 32.0
107.049054 31.0
109.028459 39.0
111.005363 39.0
111.049743 40.0
113.033348 79.0
113.038558 361.0
114.050045 114.0
115.057633 1891.0
116.06437 97.0
117.055358 20.0
117.072318 222.0
118.066525 31.0
119.046762 14.0
119.066002 29.0
120.08579 15.0
121.064657 25.0
123.045182 11.0
125.037397 22.0
125.063687 14.0
126.050494 372.0
127.054442 1491.0
128.065699 3629.0
129.059806 147.0
129.073136 679.0
130.037644 95.0
130.049924 106.0
131.052821 217.0
132.076438 24.0
133.064506 12.0
135.101761 17.0
137.047815 40.0
138.038143 58.0
139.05167 93.0
139.0563 1154.0
140.060808 180.0
140.622506 40.0
141.068925 1455.0
142.046802 81.0
142.080662 154.0
143.04915 42.0
143.06788 118.0
143.07727 153.0
144.056197 342.0
145.067945 653.0
145.973152 32.0
147.045049 38.0
147.086629 62.0
147.965907 16.0
149.040314 26.0
150.047782 104.0
151.058659 491.0
152.066886 1271.0
152.597655 18.0
153.073614 1077.0
154.053271 87.0
154.077591 254.0
155.053108 3027.0
156.058646 3267.0
156.579205 49.0
157.067453 2970.0
157.768021 22.0
158.043771 1810.0
158.056081 1546.0
158.604599 23.0
159.047818 177.0
159.066348 116.0
159.076238 81.0
160.055055 397.0
160.959803 28.0
161.046813 26.0
161.064203 40.0
163.058298 60.0
163.060798 57.0
164.055535 28.0
164.066835 50.0
165.070942 554.0
166.04779 33.0
167.042717 47.0
167.054137 693.0
168.059685 2103.0
169.068262 1332.0
170.077299 567.0
170.497878 31.0
171.085507 11357.0
172.052994 372.0
173.065741 4894.0
174.043989 31.0
174.073689 127.0
174.103429 29.0
175.066446 113.0
175.078096 922.0
176.045104 69.0
176.064604 24.0
177.044741 13.0
178.051148 20.0
178.086418 24.0
179.051206 41.0
180.064593 215.0
181.068971 2978.0
181.869999 29.0
182.077468 281.0
183.049015 1327.0
183.445514 60.0
184.057673 8186.0
185.06112 1689.0
186.047268 399.0
186.059268 1273.0
186.069968 1773.0
187.033325 35.0
187.041375 174.0
187.054765 396.0
187.068165 292.0
188.036772 28.0
188.046172 33.0
188.082462 37.0
189.07794 34.0
191.002325 24.0
191.063255 49.0
191.071395 149.0
191.080854 143.0
192.058452 21.0
192.99225 19.0
194.010177 22.0
194.041547 26.0
195.045834 76.0
195.062254 39.0
196.052702 59.0
196.082871 38.0
196.56739 29.0
197.062139 306.0
198.068686 734.0
199.081924 7509.0
200.057571 105.0
200.083891 142.0
200.56502 21.0
201.064768 3307.0
201.074488 6598.0
202.066146 152.0
202.923454 48.0
203.054653 74.0
203.068613 129.0
203.561702 22.0
205.066958 37.0
205.158148 15.0
207.032793 44.0
208.03901 25.0
208.06303 32.0
209.036338 82.0
209.063238 419.0
210.070115 43.0
210.078635 35.0
211.048102 492.0
211.065192 172.0
212.05261 10895.0
213.053767 192.0
213.667626 17.0
214.030075 1220.0
215.050252 48.0
215.067502 442.0
216.059909 78.0
216.081499 259.0
217.050277 39.0
217.069037 120.0
217.086357 115.0
217.106567 66.0
218.067504 24.0
219.000102 18.0
219.101601 21.0
221.059146 22.0
223.066381 17.0
223.089781 26.0
223.139531 25.0
224.082918 86.0
225.057686 200.0
226.069913 348.0
226.318903 65.0
226.333643 154.0
226.361642 41.0
226.572462 36.0
227.077031 15860.0
228.044968 309.0
228.232888 182.0
228.351287 159.0
228.561547 40.0
229.052015 7380.0
229.893413 32.0
230.056843 336.0
231.05641 88.0
231.07428 171.0
236.049137 30.0
237.082744 55.0
237.879832 23.0
239.062829 51.0
239.071909 63.0
240.083267 16.0
241.035924 23.0
241.061764 92.0
242.059032 60.0
243.049209 83.0
243.062939 295.0
244.073506 1258.0
244.274036 81.0
244.287816 80.0
244.303136 51.0
245.084644 28318.0
246.085571 41.0
246.41455 47.0
246.708349 8.0
255.065268 13.0
256.076955 24.0
262.120889 8.0
269.079911 19.0
270.090008 21.0
278.028168 7.0
281.07793 17.0
285.071479 17.0
290.534055 7.0
293.080978 23.0
295.430222 8.0
299.574951 195.0
302.232635 21.0
303.245112 225.0
309.298556 8.0
313.686575 8.0
315.025691 8.0
320.098668 308.0
320.738716 8.0
321.864263 8.0
323.09393 19.0
323.583619 20.0
325.083215 9.0
328.057297 934.0
329.318284 28.0
330.64756 7.0
334.314701 8.0
335.146329 8.0
341.579272 8.0
343.216138 16.0
345.097083 15.0
351.139607 33.0
363.867664 8.0
407.134761 61.0
407.180231 12.0
569.288478 32.0

