>compound 
>formula C23H30O12
>parentmass 521.1629474017401
>ionization [M + Na]+
>instrumentation Unknown (LCMS)
>source file:/Users/fanzhoukong/Documents/GitHub/Libgen/data/EAD_PFP/0_unknown_/spectrum.ms
>quality UNKNOWN

>ms2peaks
50.014741 206.0
51.023641 673.0
52.027782 102.0
53.038133 164.0
54.033723 15.0
54.045243 21.0
55.054554 809.0
55.933914 10.0
56.051195 72.0
56.057795 36.0
57.070845 88.0
57.934776 13.0
58.064586 6.0
59.048847 9.0
60.983248 19.0
60.997018 14.0
61.007728 6.0
62.011119 6.0
62.014979 65.0
63.023469 274.0
64.03069 30.0
65.039571 1169.0
66.043601 109.0
67.054522 496.0
68.023823 8.0
68.047253 7.0
68.057763 40.0
68.995203 138.0
69.070893 22.0
69.991494 5.0
70.064454 13.0
70.078394 5.0
71.086575 7.0
72.936186 6.0
73.045826 17.0
74.016057 57.0
75.023217 58.0
76.019258 6.0
76.029508 147.0
77.039919 1328.0
78.044889 344.0
79.05376 457.0
80.051571 140.0
81.069751 289.0
82.064192 12.0
82.076622 8.0
83.086133 66.0
84.082043 6.0
85.047754 15.0
86.016255 16.0
87.018555 11.0
88.031266 27.0
89.037817 423.0
90.043577 55.0
91.055928 1388.0
92.055139 187.0
93.056959 39.0
93.068309 164.0
94.06421 66.0
95.087391 138.0
95.949061 15.0
96.088251 11.0
98.014513 11.0
99.993184 19.0
100.112734 66.0
101.040155 8.0
102.046055 137.0
103.054946 205.0
104.056817 75.0
105.069557 301.0
106.066008 36.0
107.049939 31.0
107.072239 40.0
108.080159 17.0
109.09997 48.0
110.093721 6.0
111.002171 17.0
112.006612 12.0
112.998903 27.0
113.038483 18.0
114.034283 9.0
115.055464 605.0
116.059035 114.0
117.068025 225.0
118.064356 40.0
119.076657 16.0
119.086277 46.0
120.078258 10.0
120.081478 36.0
121.100218 48.0
122.097289 9.0
123.040839 6.0
123.10605 8.0
124.0884 10.0
125.002361 6.0
126.047222 63.0
126.902132 29.0
127.056672 211.0
128.062403 620.0
129.068744 235.0
130.068964 138.0
131.062975 34.0
131.076435 29.0
131.085405 42.0
132.015736 14.0
132.068636 38.0
132.078766 32.0
132.903036 6.0
133.013736 7.0
133.060056 6.0
133.081526 10.0
133.099606 31.0
134.094877 18.0
134.106237 13.0
135.112098 15.0
136.117148 8.0
137.036439 9.0
138.0302 17.0
138.1269 15.0
139.05527 171.0
140.057451 32.0
141.070232 327.0
141.926722 13.0
142.077312 98.0
143.080923 71.0
144.082204 60.0
145.069284 33.0
145.086984 43.0
145.095244 27.0
145.968575 24.0
146.068015 7.0
146.096435 9.0
147.087996 8.0
147.096306 16.0
147.964896 14.0
148.112716 8.0
149.133797 8.0
150.046778 19.0
150.063578 7.0
151.052858 33.0
152.064699 183.0
153.06535 120.0
154.06686 19.0
155.070431 11.0
155.086301 43.0
156.082152 55.0
157.098392 19.0
158.098213 68.0
159.096274 14.0
159.118524 6.0
161.094335 56.0
162.096796 6.0
163.054826 38.0
164.063357 28.0
165.068718 311.0
166.070828 93.0
167.077229 79.0
168.0689 24.0
168.08035 34.0
169.06352 11.0
169.08515 28.0
169.10173 30.0
170.029111 6.0
170.073821 7.0
170.096831 35.0
171.085862 6.0
171.111492 11.0
172.103462 26.0
172.111192 35.0
173.122813 8.0
173.134413 15.0
174.048214 5.0
174.125774 10.0
176.059785 59.0
176.141675 5.0
177.063386 33.0
178.077686 231.0
179.085697 88.0
180.084738 32.0
180.175438 15.0
181.056198 15.0
181.077308 9.0
181.097078 25.0
182.188949 90.0
183.03618 38.0
183.11571 8.0
184.10729 16.0
184.12058 16.0
185.038911 8.0
185.096231 7.0
185.121541 8.0
185.132211 18.0
186.102482 10.0
186.126552 8.0
187.053882 13.0
187.146342 6.0
189.071684 118.0
190.075184 51.0
191.000105 57.0
191.062385 6.0
191.082715 23.0
192.079306 17.0
192.087446 34.0
192.984586 101.0
193.092116 8.0
193.979307 13.0
194.098037 19.0
194.960168 9.0
195.107918 20.0
196.114939 11.0
197.058559 5.0
197.125949 12.0
198.12575 6.0
199.07832 19.0
200.059511 16.0
200.142651 8.0
201.061162 10.0
201.070892 15.0
202.079243 123.0
203.084533 7.0
203.141783 166.0
204.081134 17.0
204.089524 14.0
204.149704 21.0
205.089985 23.0
205.102615 8.0
205.155915 27.0
206.098515 11.0
206.104135 16.0
207.031976 111.0
208.032557 32.0
208.114507 11.0
209.014287 8.0
209.036947 8.0
210.127538 7.0
210.991798 9.0
211.148359 8.0
212.143119 7.0
213.05155 5.0
213.07014 10.0
213.16453 10.0
214.079451 11.0
214.162581 5.0
215.083951 50.0
216.086482 16.0
217.098573 29.0
218.099993 31.0
218.166543 5.0
219.084864 8.0
219.106624 23.0
220.103955 12.0
221.091885 8.0
221.134125 9.0
222.068896 6.0
223.146087 5.0
224.082157 5.0
225.040778 12.0
226.069159 14.0
227.086609 11.0
228.07973 7.0
228.09452 27.0
229.088351 11.0
229.097231 18.0
230.096231 9.0
230.111071 6.0
231.110772 8.0
232.112633 12.0
233.095723 6.0
235.072645 7.0
235.111685 6.0
239.080287 42.0
240.094708 7.0
241.094539 16.0
241.201019 10.0
242.187909 5.0
242.98436 16.0
244.115681 6.0
245.226611 6.0
246.124852 6.0
247.067853 6.0
247.081713 9.0
248.143803 12.0
248.985534 16.0
249.989755 6.0
250.966515 9.0
251.005295 9.0
252.092896 6.0
253.199987 8.0
256.118629 7.0
257.091559 13.0
257.130839 6.0
259.074501 8.0
260.236312 6.0
261.110942 6.0
263.071153 36.0
264.077864 9.0
265.017955 33.0
266.018815 7.0
267.007156 30.0
268.003737 7.0
268.979687 9.0
269.002187 10.0
275.067551 14.0
276.090442 8.0
277.097313 7.0
279.080524 6.0
281.055995 94.0
282.050506 33.0
283.054957 45.0
284.056268 5.0
290.061162 8.0
292.075073 15.0
295.079565 8.0
298.124787 5.0
299.059208 6.0
300.079928 8.0
303.06721 8.0
305.076092 7.0
311.128706 7.0
313.129407 5.0
315.065228 5.0
321.076952 59.0
323.008964 6.0
324.985645 11.0
325.118095 6.0
326.966576 6.0
327.099446 5.0
327.969937 7.0
328.962398 14.0
333.07596 17.0
337.087373 8.0
339.092164 12.0
341.142706 7.0
343.010717 5.0
345.968939 6.0
349.075291 6.0
351.082342 6.0
355.098885 5.0
356.103836 9.0
359.058488 6.0
359.156878 6.0
363.101611 5.0
366.092583 5.0
367.094163 8.0
369.110865 7.0
370.028005 7.0
371.033076 47.0
379.096041 11.0
381.109043 14.0
383.102484 5.0
385.104955 21.0
387.128057 8.0
395.092382 5.0
396.095833 5.0
397.106393 26.0
398.114334 19.0
399.123575 7.0
408.097801 6.0
409.107711 12.0
413.104024 14.0
414.108145 16.0
415.121455 58.0
417.037747 26.0
426.104923 11.0
427.108493 99.0
427.118623 163.0
491.038926 6.0
502.145984 6.0
504.314965 25.0
505.116076 6.0
513.130921 7.0
521.168517 12.0
521.199827 30.0
521.237857 27.0
521.273687 16.0

