>compound 
>formula C15H12O6
>parentmass 289.07066910418007
>ionization [M + H]+
>instrumentation Unknown (LCMS)
>source file:/Users/fanzhoukong/Documents/GitHub/Libgen/data/EAD_PFP/0_unknown_/spectrum.ms
>quality UNKNOWN

>ms2peaks
115.050526 91.0
115.053676 490.0
116.053015 36.0
117.034424 1190.0
118.045503 82.0
119.073762 123.0
119.085522 102.0
120.022751 66.0
121.063869 38.0
121.102679 35.0
123.045487 1838.0
125.021275 26.0
125.030045 69.0
126.024423 27.0
127.039302 56.0
127.055872 117.0
128.060471 166.0
129.06792 80.0
131.049807 27.0
135.046353 55.0
137.02411 41.0
141.076315 39.0
143.049563 62.0
143.088243 47.0
144.058962 57.0
145.029451 4396.0
146.037499 149.0
146.064719 26.0
147.050238 117.0
147.065678 130.0
147.084698 98.0
148.116537 35.0
149.062296 141.0
149.076656 184.0
149.100576 70.0
150.031455 134.0
150.036265 186.0
151.037463 1127.0
151.041063 1605.0
152.052862 187.0
152.062532 551.0
152.508612 83.0
152.515872 99.0
152.525542 107.0
153.026831 17025.0
153.98932 459.0
154.06957 118.0
154.07564 178.0
154.27269 66.0
155.060939 351.0
155.074359 562.0
157.060586 106.0
157.093736 143.0
157.102326 231.0
159.047104 2055.0
161.021231 62.0
161.063501 1436.0
162.07336 111.0
163.045069 11027.0
164.042268 89.0
165.066437 167.0
166.026885 4146.0
167.063534 135.0
168.057713 90.0
169.086672 382.0
169.101962 382.0
171.056619 661.0
171.120689 34.0
173.094687 444.0
174.067836 28.0
175.107235 99.0
176.052223 87.0
177.053182 227.0
177.061012 298.0
178.028231 53.0
179.0361 5713.0
181.065657 27.0
183.045685 152.0
183.066895 253.0
183.115915 295.0
185.053793 153.0
185.063123 232.0
185.133753 63.0
187.0407 3735.0
191.001666 55.0
195.113581 29.0
197.062878 161.0
197.134398 16.0
199.041206 47.0
199.137966 86.0
200.050015 169.0
201.057184 689.0
202.032092 144.0
203.030281 90.0
204.07991 22.0
205.049489 2203.0
207.101236 63.0
210.122033 70.0
211.037512 61.0
211.149961 93.0
213.053149 102.0
214.059548 136.0
215.101357 69.0
215.150207 175.0
215.168907 94.0
217.046774 43.0
219.061842 38.0
219.099552 114.0
221.1139 37.0
223.042367 37.0
224.050076 111.0
225.057095 126.0
225.168805 469.0
227.032152 51.0
227.064622 63.0
227.175362 35.0
228.042901 38.0
229.04994 714.0
231.060308 53.0
233.115305 35.0
241.053606 65.0
242.050865 117.0
243.173893 1631.0
244.184692 110.0
245.048831 137.0
247.063349 815.0
253.044251 82.0
253.050491 715.0
258.055435 104.0
259.057264 81.0
260.067333 170.0
261.076242 53.0
265.029207 32.0
269.045652 135.0
270.054081 346.0
271.0628 2037.0
273.038877 61.0
285.052803 50.0
286.044352 96.0
287.057571 2495.0
288.089209 71.0
289.079388 10384.0

